##TITLE=EP ATR
##DATA TYPE=INFRARED SPECTRUM
##XUNITS=1/CM
##YUNITS=%T
500.354774  	97.791742 
501.780287  	98.138290 
503.205799  	98.050648 
504.631311  	97.545298 
506.056823  	97.105160 
507.482335  	97.395086 
508.907847  	97.481107 
510.333360  	97.364108 
511.758872  	97.778360 
513.184384  	97.927058 
514.609896  	97.675408 
516.035408  	97.450109 
517.460920  	97.139509 
518.886433  	97.086889 
520.311945  	97.286114 
521.737457  	97.581137 
523.162969  	97.945325 
524.588481  	97.615044 
526.013994  	96.853094 
527.439506  	97.010118 
528.865018  	97.497052 
530.290530  	97.536963 
531.716042  	97.533433 
533.141554  	97.678032 
534.567067  	97.755056 
535.992579  	97.598039 
537.418091  	97.367089 
538.843603  	97.459266 
540.269115  	97.765180 
541.694627  	97.920588 
543.120140  	97.840755 
544.545652  	97.549182 
545.971164  	97.400053 
547.396676  	97.547752 
548.822188  	97.477894 
550.247701  	97.253459 
551.673213  	97.436088 
553.098725  	97.758764 
554.524237  	97.862487 
555.949749  	97.834547 
557.375261  	97.566961 
558.800774  	97.275691 
560.226286  	97.362934 
561.651798  	97.542410 
563.077310  	97.641298 
564.502822  	97.746079 
565.928335  	97.640854 
567.353847  	97.593036 
568.779359  	97.805071 
570.204871  	97.738485 
571.630383  	97.576187 
573.055895  	97.679947 
574.481408  	97.551513 
575.906920  	97.254686 
577.332432  	97.277515 
578.757944  	97.388203 
580.183456  	97.477825 
581.608968  	97.606743 
583.034481  	97.645282 
584.459993  	97.741058 
585.885505  	97.950824 
587.311017  	98.030745 
588.736529  	97.980844 
590.162042  	97.941611 
591.587554  	97.881168 
593.013066  	97.789229 
594.438578  	97.855785 
595.864090  	98.072839 
597.289602  	98.131657 
598.715115  	98.058911 
600.140627  	98.096825 
601.566139  	98.140058 
602.991651  	98.166980 
604.417163  	98.046889 
605.842675  	98.022110 
607.268188  	97.890709 
608.693700  	98.029960 
610.119212  	97.951458 
611.544724  	98.050027 
612.970236  	98.069776 
614.395749  	98.059542 
615.821261  	98.151630 
617.246773  	98.175875 
618.672285  	98.203356 
620.097797  	98.236658 
621.523309  	98.381397 
622.948822  	98.447668 
624.374334  	98.316203 
625.799846  	98.319929 
627.225358  	98.327223 
628.650870  	98.449715 
630.076383  	98.561782 
631.501895  	98.404775 
632.927407  	98.363612 
634.352919  	98.371348 
635.778431  	98.351854 
637.203943  	98.291431 
638.629456  	98.299786 
640.054968  	98.346638 
641.480480  	98.448138 
642.905992  	98.359966 
644.331504  	98.315835 
645.757016  	98.162584 
647.182529  	98.312536 
648.608041  	98.320496 
650.033553  	98.334264 
651.459065  	98.346561 
652.884577  	98.352435 
654.310090  	98.355160 
655.735602  	98.363104 
657.161114  	98.369540 
658.586626  	98.380953 
660.012138  	98.392733 
661.437650  	98.400767 
662.863163  	98.400559 
664.288675  	98.471864 
665.714187  	98.392401 
667.139699  	98.395716 
668.565211  	98.404612 
669.990723  	98.411555 
671.416236  	98.406992 
672.841748  	98.411957 
674.267260  	98.301169 
675.692772  	98.394897 
677.118284  	98.404460 
678.543797  	98.404599 
679.969309  	98.400469 
681.394821  	98.395009 
682.820333  	98.388502 
684.245845  	98.379001 
685.671357  	98.379297 
687.096870  	98.389984 
688.522382  	98.386172 
689.947894  	98.422078 
691.373406  	98.473137 
692.798918  	98.303408 
694.224430  	98.163808 
695.649943  	98.359182 
697.075455  	98.362973 
698.500967  	98.366265 
699.926479  	98.372463 
701.351991  	98.374760 
702.777504  	98.374298 
704.203016  	98.387242 
705.628528  	98.423012 
707.054040  	98.440314 
708.479552  	98.324668 
709.905064  	98.386739 
711.330577  	98.466583 
712.756089  	98.470914 
714.181601  	98.506409 
715.607113  	98.652459 
717.032625  	98.812701 
718.458138  	98.603069 
719.883650  	98.609524 
721.309162  	98.635193 
722.734674  	98.659050 
724.160186  	98.676394 
725.585698  	98.647732 
727.011211  	98.632130 
728.436723  	98.801196 
729.862235  	98.809822 
731.287747  	98.853759 
732.713259  	98.877402 
734.138771  	98.776694 
735.564284  	98.705089 
736.989796  	98.654975 
738.415308  	98.797609 
739.840820  	98.958238 
741.266332  	98.888740 
742.691845  	98.755205 
744.117357  	98.823132 
745.542869  	98.845138 
746.968381  	98.726191 
748.393893  	98.712990 
749.819405  	98.680303 
751.244918  	98.498523 
752.670430  	98.458630 
754.095942  	98.615496 
755.521454  	98.621017 
756.946966  	98.407554 
758.372478  	98.342263 
759.797991  	98.606502 
761.223503  	98.857967 
762.649015  	98.780206 
764.074527  	98.586279 
765.500039  	98.504459 
766.925552  	98.408477 
768.351064  	98.341260 
769.776576  	98.487147 
771.202088  	98.665346 
772.627600  	98.702090 
774.053112  	98.735130 
775.478625  	98.824009 
776.904137  	98.914395 
778.329649  	98.953129 
779.755161  	98.870390 
781.180673  	98.772841 
782.606186  	98.813164 
784.031698  	98.913847 
785.457210  	98.984793 
786.882722  	99.025293 
788.308234  	99.000642 
789.733746  	98.941982 
791.159259  	98.950439 
792.584771  	98.999397 
794.010283  	98.956402 
795.435795  	98.822650 
796.861307  	98.742904 
798.286819  	98.778699 
799.712332  	98.875790 
801.137844  	98.953146 
802.563356  	98.983629 
803.988868  	99.024583 
805.414380  	99.003860 
806.839893  	98.837866 
808.265405  	98.794217 
809.690917  	99.010989 
811.116429  	99.133157 
812.541941  	98.956552 
813.967453  	98.717593 
815.392966  	98.678037 
816.818478  	98.821888 
818.243990  	98.909766 
819.669502  	98.866735 
821.095014  	98.846952 
822.520526  	98.884572 
823.946039  	98.938628 
825.371551  	98.982791 
826.797063  	98.936443 
828.222575  	98.865817 
829.648087  	98.892018 
831.073600  	98.908602 
832.499112  	98.823125 
833.924624  	98.732230 
835.350136  	98.727471 
836.775648  	98.809225 
838.201160  	98.855171 
839.626673  	98.767140 
841.052185  	98.706941 
842.477697  	98.815563 
843.903209  	98.944490 
845.328721  	98.973485 
846.754234  	98.931765 
848.179746  	98.837251 
849.605258  	98.788961 
851.030770  	98.842988 
852.456282  	98.837913 
853.881794  	98.751461 
855.307307  	98.745903 
856.732819  	98.799198 
858.158331  	98.826444 
859.583843  	98.803808 
861.009355  	98.706083 
862.434867  	98.683295 
863.860380  	98.826935 
865.285892  	98.908605 
866.711404  	98.872976 
868.136916  	98.886254 
869.562428  	98.910150 
870.987941  	98.913237 
872.413453  	98.920760 
873.838965  	98.847842 
875.264477  	98.811310 
876.689989  	98.919465 
878.115501  	98.935109 
879.541014  	98.858753 
880.966526  	98.943111 
882.392038  	99.044175 
883.817550  	98.960156 
885.243062  	98.852837 
886.668574  	98.847520 
888.094087  	98.861508 
889.519599  	98.832629 
890.945111  	98.789734 
892.370623  	98.764805 
893.796135  	98.756692 
895.221648  	98.788264 
896.647160  	98.813790 
898.072672  	98.726355 
899.498184  	98.620673 
900.923696  	98.623404 
902.349208  	98.652890 
903.774721  	98.670623 
905.200233  	98.682662 
906.625745  	98.651064 
908.051257  	98.655037 
909.476769  	98.701598 
910.902281  	98.683155 
912.327794  	98.648026 
913.753306  	98.618631 
915.178818  	98.530843 
916.604330  	98.472664 
918.029842  	98.486187 
919.455355  	98.480260 
920.880867  	98.475066 
922.306379  	98.510313 
923.731891  	98.511511 
925.157403  	98.489998 
926.582915  	98.554111 
928.008428  	98.634340 
929.433940  	98.583961 
930.859452  	98.514927 
932.284964  	98.566976 
933.710476  	98.614950 
935.135989  	98.568890 
936.561501  	98.529006 
937.987013  	98.555717 
939.412525  	98.602055 
940.838037  	98.600406 
942.263549  	98.576485 
943.689062  	98.605729 
945.114574  	98.640053 
946.540086  	98.629831 
947.965598  	98.631733 
949.391110  	98.635526 
950.816622  	98.595102 
952.242135  	98.537828 
953.667647  	98.471772 
955.093159  	98.393374 
956.518671  	98.347817 
957.944183  	98.356462 
959.369696  	98.365865 
960.795208  	98.331719 
962.220720  	98.286925 
963.646232  	98.248446 
965.071744  	98.199633 
966.497256  	98.160445 
967.922769  	98.107208 
969.348281  	98.020165 
970.773793  	97.972279 
972.199305  	97.944460 
973.624817  	97.875482 
975.050329  	97.841394 
976.475842  	97.833830 
977.901354  	97.737534 
979.326866  	97.617056 
980.752378  	97.586063 
982.177890  	97.578310 
983.603403  	97.523023 
985.028915  	97.476713 
986.454427  	97.463259 
987.879939  	97.440683 
989.305451  	97.444669 
990.730963  	97.511723 
992.156476  	97.543042 
993.581988  	97.486972 
995.007500  	97.448835 
996.433012  	97.460041 
997.858524  	97.459225 
999.284037  	97.466303 
1000.709549  	97.481536 
1002.135061  	97.470818 
1003.560573  	97.504306 
1004.986085  	97.586314 
1006.411597  	97.604301 
1007.837110  	97.549755 
1009.262622  	97.478648 
1010.688134  	97.443096 
1012.113646  	97.495094 
1013.539158  	97.575686 
1014.964670  	97.618428 
1016.390183  	97.635173 
1017.815695  	97.595153 
1019.241207  	97.542601 
1020.666719  	97.609925 
1022.092231  	97.741746 
1023.517744  	97.783749 
1024.943256  	97.766392 
1026.368768  	97.797184 
1027.794280  	97.834304 
1029.219792  	97.853127 
1030.645304  	97.941423 
1032.070817  	98.026813 
1033.496329  	98.004223 
1034.921841  	97.985609 
1036.347353  	98.018458 
1037.772865  	98.055947 
1039.198377  	98.124245 
1040.623890  	98.191321 
1042.049402  	98.236793 
1043.474914  	98.271203 
1044.900426  	98.271877 
1046.325938  	98.321523 
1047.751451  	98.403495 
1049.176963  	98.380402 
1050.602475  	98.344323 
1052.027987  	98.403805 
1053.453499  	98.522964 
1054.879011  	98.645826 
1056.304524  	98.655109 
1057.730036  	98.626342 
1059.155548  	98.714863 
1060.581060  	98.784791 
1062.006572  	98.800199 
1063.432085  	98.874349 
1064.857597  	98.926966 
1066.283109  	98.879435 
1067.708621  	98.748484 
1069.134133  	98.686390 
1070.559645  	98.808020 
1071.985158  	98.798464 
1073.410670  	98.577374 
1074.836182  	98.543910 
1076.261694  	98.630657 
1077.687206  	98.599901 
1079.112718  	98.584364 
1080.538231  	98.590522 
1081.963743  	98.607976 
1083.389255  	98.714610 
1084.814767  	98.794313 
1086.240279  	98.852315 
1087.665792  	98.954113 
1089.091304  	98.968517 
1090.516816  	98.939150 
1091.942328  	98.978040 
1093.367840  	98.994781 
1094.793352  	98.992982 
1096.218865  	99.018378 
1097.644377  	98.996170 
1099.069889  	98.971058 
1100.495401  	99.027317 
1101.920913  	99.076051 
1103.346425  	99.041858 
1104.771938  	98.989322 
1106.197450  	98.994867 
1107.622962  	99.060359 
1109.048474  	99.121118 
1110.473986  	99.138626 
1111.899499  	99.150767 
1113.325011  	99.141111 
1114.750523  	99.082076 
1116.176035  	99.079262 
1117.601547  	99.159392 
1119.027059  	99.168985 
1120.452572  	99.109984 
1121.878084  	99.143896 
1123.303596  	99.230886 
1124.729108  	99.214810 
1126.154620  	99.150481 
1127.580132  	99.158776 
1129.005645  	99.188714 
1130.431157  	99.183676 
1131.856669  	99.172983 
1133.282181  	99.159185 
1134.707693  	99.151640 
1136.133206  	99.149124 
1137.558718  	99.125041 
1138.984230  	99.114851 
1140.409742  	99.110029 
1141.835254  	99.074915 
1143.260766  	99.050936 
1144.686279  	99.009391 
1146.111791  	98.950106 
1147.537303  	98.958651 
1148.962815  	98.953243 
1150.388327  	98.905049 
1151.813840  	98.925745 
1153.239352  	98.943620 
1154.664864  	98.953952 
1156.090376  	99.080467 
1157.515888  	99.186677 
1158.941400  	99.153840 
1160.366913  	99.142709 
1161.792425  	99.244453 
1163.217937  	99.365573 
1164.643449  	99.415291 
1166.068961  	99.406448 
1167.494473  	99.405655 
1168.919986  	99.437484 
1170.345498  	99.495611 
1171.771010  	99.566798 
1173.196522  	99.614408 
1174.622034  	99.604218 
1176.047547  	99.565585 
1177.473059  	99.575141 
1178.898571  	99.611559 
1180.324083  	99.614859 
1181.749595  	99.637936 
1183.175107  	99.656888 
1184.600620  	99.611815 
1186.026132  	99.600582 
1187.451644  	99.611779 
1188.877156  	99.568923 
1190.302668  	99.571088 
1191.728180  	99.605248 
1193.153693  	99.589041 
1194.579205  	99.584264 
1196.004717  	99.571957 
1197.430229  	99.534143 
1198.855741  	99.541364 
1200.281254  	99.549414 
1201.706766  	99.537347 
1203.132278  	99.529321 
1204.557790  	99.485387 
1205.983302  	99.453157 
1207.408814  	99.469985 
1208.834327  	99.489931 
1210.259839  	99.514711 
1211.685351  	99.510049 
1213.110863  	99.472548 
1214.536375  	99.479768 
1215.961888  	99.499256 
1217.387400  	99.493444 
1218.812912  	99.485259 
1220.238424  	99.453491 
1221.663936  	99.427374 
1223.089448  	99.420539 
1224.514961  	99.379170 
1225.940473  	99.340714 
1227.365985  	99.340422 
1228.791497  	99.349600 
1230.217009  	99.365270 
1231.642521  	99.360297 
1233.068034  	99.339242 
1234.493546  	99.351566 
1235.919058  	99.356941 
1237.344570  	99.324373 
1238.770082  	99.297741 
1240.195595  	99.279309 
1241.621107  	99.265379 
1243.046619  	99.272853 
1244.472131  	99.281228 
1245.897643  	99.275761 
1247.323155  	99.273227 
1248.748668  	99.283357 
1250.174180  	99.303177 
1251.599692  	99.317557 
1253.025204  	99.320445 
1254.450716  	99.327482 
1255.876228  	99.337813 
1257.301741  	99.347471 
1258.727253  	99.365123 
1260.152765  	99.366611 
1261.578277  	99.347127 
1263.003789  	99.360019 
1264.429302  	99.399651 
1265.854814  	99.411289 
1267.280326  	99.402479 
1268.705838  	99.403636 
1270.131350  	99.405780 
1271.556862  	99.402838 
1272.982375  	99.421021 
1274.407887  	99.454187 
1275.833399  	99.443862 
1277.258911  	99.402094 
1278.684423  	99.405001 
1280.109935  	99.440846 
1281.535448  	99.458629 
1282.960960  	99.457928 
1284.386472  	99.447966 
1285.811984  	99.441982 
1287.237496  	99.426422 
1288.663009  	99.393334 
1290.088521  	99.409680 
1291.514033  	99.460124 
1292.939545  	99.457132 
1294.365057  	99.431775 
1295.790569  	99.417677 
1297.216082  	99.390424 
1298.641594  	99.388581 
1300.067106  	99.419315 
1301.492618  	99.424451 
1302.918130  	99.432002 
1304.343643  	99.421615 
1305.769155  	99.417892 
1307.194667  	99.414035 
1308.620179  	99.410513 
1310.045691  	99.409299 
1311.471203  	99.409401 
1312.896716  	99.408462 
1314.322228  	99.406000 
1315.747740  	99.401865 
1317.173252  	99.396995 
1318.598764  	99.392751 
1320.024276  	99.388441 
1321.449789  	99.383723 
1322.875301  	99.378417 
1324.300813  	99.372553 
1325.726325  	99.392659 
1327.151837  	99.360268 
1328.577350  	99.352876 
1330.002862  	99.349796 
1331.428374  	99.351291 
1332.853886  	99.348247 
1334.279398  	99.356683 
1335.704910  	99.356145 
1337.130423  	99.351278 
1338.555935  	99.347020 
1339.981447  	99.345517 
1341.406959  	99.344224 
1342.832471  	99.343070 
1344.257983  	99.344189 
1345.683496  	99.416055 
1347.109008  	99.338092 
1348.534520  	99.332461 
1349.960032  	99.332952 
1351.385544  	99.336106 
1352.811057  	99.323758 
1354.236569  	99.339377 
1355.662081  	99.337087 
1357.087593  	99.288197 
1358.513105  	99.325454 
1359.938617  	99.322676 
1361.364130  	99.322753 
1362.789642  	99.322728 
1364.215154  	99.324797 
1365.640666  	99.372151 
1367.066178  	99.333957 
1368.491691  	99.337516 
1369.917203  	99.342513 
1371.342715  	99.347831 
1372.768227  	99.354244 
1374.193739  	99.361170 
1375.619251  	99.366590 
1377.044764  	99.370694 
1378.470276  	99.374194 
1379.895788  	99.379920 
1381.321300  	99.373983 
1382.746812  	99.397321 
1384.172324  	99.430322 
1385.597837  	99.404671 
1387.023349  	99.410074 
1388.448861  	99.412698 
1389.874373  	99.413234 
1391.299885  	99.417305 
1392.725398  	99.422392 
1394.150910  	99.425543 
1395.576422  	99.426481 
1397.001934  	99.425371 
1398.427446  	99.423820 
1399.852958  	99.423456 
1401.278471  	99.424397 
1402.703983  	99.425143 
1404.129495  	99.424057 
1405.555007  	99.421492 
1406.980519  	99.421527 
1408.406031  	99.411499 
1409.831544  	99.426124 
1411.257056  	99.427686 
1412.682568  	99.430524 
1414.108080  	99.432792 
1415.533592  	99.433928 
1416.959105  	99.435392 
1418.384617  	99.436762 
1419.810129  	99.437142 
1421.235641  	99.436410 
1422.661153  	99.439607 
1424.086665  	99.449989 
1425.512178  	99.455508 
1426.937690  	99.459046 
1428.363202  	99.455972 
1429.788714  	99.459539 
1431.214226  	99.463692 
1432.639739  	99.468618 
1434.065251  	99.476255 
1435.490763  	99.482638 
1436.916275  	99.483329 
1438.341787  	99.483456 
1439.767299  	99.483757 
1441.192812  	99.486319 
1442.618324  	99.488915 
1444.043836  	99.520688 
1445.469348  	99.501204 
1446.894860  	99.500913 
1448.320372  	99.495307 
1449.745885  	99.497386 
1451.171397  	99.508976 
1452.596909  	99.518992 
1454.022421  	99.522057 
1455.447933  	99.524506 
1456.873446  	99.526918 
1458.298958  	99.528747 
1459.724470  	99.533450 
1461.149982  	99.541341 
1462.575494  	99.549331 
1464.001006  	99.555546 
1465.426519  	99.563600 
1466.852031  	99.572583 
1468.277543  	99.578529 
1469.703055  	99.586990 
1471.128567  	99.596172 
1472.554079  	99.604711 
1473.979592  	99.609444 
1475.405104  	99.609640 
1476.830616  	99.610397 
1478.256128  	99.609992 
1479.681640  	99.608206 
1481.107153  	99.604799 
1482.532665  	99.609622 
1483.958177  	99.639114 
1485.383689  	99.623782 
1486.809201  	99.625629 
1488.234713  	99.623673 
1489.660226  	99.617852 
1491.085738  	99.611891 
1492.511250  	99.611293 
1493.936762  	99.618786 
1495.362274  	99.608198 
1496.787786  	99.594729 
1498.213299  	99.587359 
1499.638811  	99.583904 
1501.064323  	99.580053 
1502.489835  	99.534580 
1503.915347  	99.591880 
1505.340860  	99.591541 
1506.766372  	99.581877 
1508.191884  	99.573125 
1509.617396  	99.567693 
1511.042908  	99.560330 
1512.468420  	99.557164 
1513.893933  	99.560376 
1515.319445  	99.561539 
1516.744957  	99.554856 
1518.170469  	99.543570 
1519.595981  	99.550829 
1521.021494  	99.561062 
1522.447006  	99.556686 
1523.872518  	99.546949 
1525.298030  	99.544309 
1526.723542  	99.548871 
1528.149054  	99.546333 
1529.574567  	99.545786 
1531.000079  	99.568644 
1532.425591  	99.548780 
1533.851103  	99.545170 
1535.276615  	99.551702 
1536.702127  	99.559819 
1538.127640  	99.560069 
1539.553152  	99.556557 
1540.978664  	99.556286 
1542.404176  	99.556557 
1543.829688  	99.554665 
1545.255201  	99.557858 
1546.680713  	99.574714 
1548.106225  	99.647284 
1549.531737  	99.571369 
1550.957249  	99.565152 
1552.382761  	99.569382 
1553.808274  	99.573570 
1555.233786  	99.573963 
1556.659298  	99.578713 
1558.084810  	99.580400 
1559.510322  	99.573633 
1560.935834  	99.565259 
1562.361347  	99.565870 
1563.786859  	99.575570 
1565.212371  	99.578297 
1566.637883  	99.579753 
1568.063395  	99.586044 
1569.488908  	99.587933 
1570.914420  	99.584491 
1572.339932  	99.505493 
1573.765444  	99.609416 
1575.190956  	99.612768 
1576.616468  	99.612233 
1578.041981  	99.614459 
1579.467493  	99.642567 
1580.893005  	99.616470 
1582.318517  	99.619004 
1583.744029  	99.675628 
1585.169542  	99.631352 
1586.595054  	99.619833 
1588.020566  	99.626477 
1589.446078  	99.624257 
1590.871590  	99.627603 
1592.297102  	99.622188 
1593.722615  	99.616673 
1595.148127  	99.613150 
1596.573639  	99.607672 
1597.999151  	99.593864 
1599.424663  	99.599871 
1600.850175  	99.600753 
1602.275688  	99.601045 
1603.701200  	99.604110 
1605.126712  	99.584460 
1606.552224  	99.601088 
1607.977736  	99.596940 
1609.403249  	99.597409 
1610.828761  	99.597981 
1612.254273  	99.632529 
1613.679785  	99.640211 
1615.105297  	99.593762 
1616.530809  	99.589854 
1617.956322  	99.586259 
1619.381834  	99.558911 
1620.807346  	99.614582 
1622.232858  	99.583545 
1623.658370  	99.586323 
1625.083882  	99.575919 
1626.509395  	99.530916 
1627.934907  	99.560501 
1629.360419  	99.557395 
1630.785931  	99.523915 
1632.211443  	99.560415 
1633.636956  	99.560325 
1635.062468  	99.554558 
1636.487980  	99.544377 
1637.913492  	99.539749 
1639.339004  	99.549204 
1640.764516  	99.571367 
1642.190029  	99.575583 
1643.615541  	99.576166 
1645.041053  	99.579299 
1646.466565  	99.578059 
1647.892077  	99.575059 
1649.317590  	99.586292 
1650.743102  	99.599245 
1652.168614  	99.596756 
1653.594126  	99.589729 
1655.019638  	99.588322 
1656.445150  	99.589853 
1657.870663  	99.597117 
1659.296175  	99.609703 
1660.721687  	99.606857 
1662.147199  	99.619372 
1663.572711  	99.621211 
1664.998223  	99.598187 
1666.423736  	99.603326 
1667.849248  	99.604564 
1669.274760  	99.596632 
1670.700272  	99.598782 
1672.125784  	99.609795 
1673.551297  	99.603104 
1674.976809  	99.593554 
1676.402321  	99.595385 
1677.827833  	99.600391 
1679.253345  	99.600091 
1680.678857  	99.597035 
1682.104370  	99.598670 
1683.529882  	99.604407 
1684.955394  	99.599646 
1686.380906  	99.591621 
1687.806418  	99.593507 
1689.231930  	99.595401 
1690.657443  	99.590514 
1692.082955  	99.573156 
1693.508467  	99.604135 
1694.933979  	99.598077 
1696.359491  	99.582659 
1697.785004  	99.582900 
1699.210516  	99.582586 
1700.636028  	99.579651 
1702.061540  	99.575523 
1703.487052  	99.572220 
1704.912564  	99.570633 
1706.338077  	99.561323 
1707.763589  	99.548573 
1709.189101  	99.550799 
1710.614613  	99.551059 
1712.040125  	99.537675 
1713.465637  	99.529612 
1714.891150  	99.529795 
1716.316662  	99.525529 
1717.742174  	99.516309 
1719.167686  	99.510363 
1720.593198  	99.510270 
1722.018711  	99.515056 
1723.444223  	99.512348 
1724.869735  	99.507950 
1726.295247  	99.516788 
1727.720759  	99.515051 
1729.146271  	99.515431 
1730.571784  	99.519104 
1731.997296  	99.523985 
1733.422808  	99.523556 
1734.848320  	99.522150 
1736.273832  	99.523806 
1737.699345  	99.528332 
1739.124857  	99.532496 
1740.550369  	99.535625 
1741.975881  	99.542151 
1743.401393  	99.551490 
1744.826905  	99.553696 
1746.252418  	99.550207 
1747.677930  	99.557798 
1749.103442  	99.568150 
1750.528954  	99.571894 
1751.954466  	99.571930 
1753.379978  	99.574814 
1754.805491  	99.579578 
1756.231003  	99.584494 
1757.656515  	99.589332 
1759.082027  	99.594463 
1760.507539  	99.599036 
1761.933052  	99.600445 
1763.358564  	99.601408 
1764.784076  	99.600277 
1766.209588  	99.607108 
1767.635100  	99.609093 
1769.060612  	99.613022 
1770.486125  	99.617063 
1771.911637  	99.619241 
1773.337149  	99.619195 
1774.762661  	99.617888 
1776.188173  	99.617191 
1777.613685  	99.616314 
1779.039198  	99.615314 
1780.464710  	99.617382 
1781.890222  	99.616903 
1783.315734  	99.611156 
1784.741246  	99.608013 
1786.166759  	99.610967 
1787.592271  	99.576066 
1789.017783  	99.615907 
1790.443295  	99.612552 
1791.868807  	99.607449 
1793.294319  	99.605088 
1794.719832  	99.604807 
1796.145344  	99.603698 
1797.570856  	99.603414 
1798.996368  	99.605153 
1800.421880  	99.606682 
1801.847393  	99.607960 
1803.272905  	99.610137 
1804.698417  	99.611113 
1806.123929  	99.617719 
1807.549441  	99.624649 
1808.974953  	99.629802 
1810.400466  	99.627081 
1811.825978  	99.623028 
1813.251490  	99.622440 
1814.677002  	99.649179 
1816.102514  	99.633166 
1817.528026  	99.637064 
1818.953539  	99.636694 
1820.379051  	99.635555 
1821.804563  	99.635717 
1823.230075  	99.635305 
1824.655587  	99.634037 
1826.081100  	99.632133 
1827.506612  	99.626772 
1828.932124  	99.617966 
1830.357636  	99.610287 
1831.783148  	99.602205 
1833.208660  	99.614289 
1834.634173  	99.585422 
1836.059685  	99.580466 
1837.485197  	99.577996 
1838.910709  	99.576538 
1840.336221  	99.523644 
1841.761733  	99.570146 
1843.187246  	99.568390 
1844.612758  	99.565354 
1846.038270  	99.562824 
1847.463782  	99.562209 
1848.889294  	99.559708 
1850.314807  	99.614718 
1851.740319  	99.622724 
1853.165831  	99.552174 
1854.591343  	99.547679 
1856.016855  	99.545514 
1857.442367  	99.553670 
1858.867880  	99.558523 
1860.293392  	99.558517 
1861.718904  	99.559103 
1863.144416  	99.559117 
1864.569928  	99.559815 
1865.995440  	99.566913 
1867.420953  	99.575109 
1868.846465  	99.578234 
1870.271977  	99.575202 
1871.697489  	99.570865 
1873.123001  	99.592072 
1874.548514  	99.577198 
1875.974026  	99.649745 
1877.399538  	99.584537 
1878.825050  	99.592174 
1880.250562  	99.587648 
1881.676074  	99.573783 
1883.101587  	99.530324 
1884.527099  	99.580392 
1885.952611  	99.571533 
1887.378123  	99.565697 
1888.803635  	99.560094 
1890.229148  	99.551247 
1891.654660  	99.566538 
1893.080172  	99.542655 
1894.505684  	99.548406 
1895.931196  	99.550869 
1897.356708  	99.550202 
1898.782221  	99.484345 
1900.207733  	99.552486 
1901.633245  	99.553096 
1903.058757  	99.567013 
1904.484269  	99.550081 
1905.909781  	99.551874 
1907.335294  	99.549048 
1908.760806  	99.548732 
1910.186318  	99.548173 
1911.611830  	99.563842 
1913.037342  	99.505709 
1914.462855  	99.509276 
1915.888367  	99.537932 
1917.313879  	99.532793 
1918.739391  	99.519063 
1920.164903  	99.572889 
1921.590415  	99.491075 
1923.015928  	99.482117 
1924.441440  	99.480630 
1925.866952  	99.609344 
1927.292464  	99.507337 
1928.717976  	99.499116 
1930.143488  	99.465402 
1931.569001  	99.470503 
1932.994513  	99.460557 
1934.420025  	99.464167 
1935.845537  	99.484381 
1937.271049  	99.506069 
1938.696562  	99.506913 
1940.122074  	99.489257 
1941.547586  	99.485281 
1942.973098  	99.491372 
1944.398610  	99.502727 
1945.824122  	99.435077 
1947.249635  	99.531211 
1948.675147  	99.615960 
1950.100659  	99.551158 
1951.526171  	99.544789 
1952.951683  	99.518299 
1954.377196  	99.544887 
1955.802708  	99.554111 
1957.228220  	99.565847 
1958.653732  	99.585714 
1960.079244  	99.606584 
1961.504756  	99.614499 
1962.930269  	99.622754 
1964.355781  	99.633819 
1965.781293  	99.643513 
1967.206805  	99.645795 
1968.632317  	99.527632 
1970.057829  	99.651584 
1971.483342  	99.643901 
1972.908854  	99.630924 
1974.334366  	99.615439 
1975.759878  	99.604234 
1977.185390  	99.612003 
1978.610903  	99.632765 
1980.036415  	99.658540 
1981.461927  	99.654321 
1982.887439  	99.619115 
1984.312951  	99.526161 
1985.738463  	99.501655 
1987.163976  	99.412590 
1988.589488  	99.715460 
1990.015000  	99.663151 
1991.440512  	99.652327 
1992.866024  	99.621483 
1994.291536  	99.553905 
1995.717049  	99.418835 
1997.142561  	99.546659 
1998.568073  	99.844260 
1999.993585  	99.888929 
2001.419097  	99.569633 
2002.844610  	99.649928 
2004.270122  	99.929217 
2005.695634  	99.868266 
2007.121146  	99.669688 
2008.546658  	99.456906 
2009.972170  	99.476394 
2011.397683  	99.767670 
2012.823195  	99.716142 
2014.248707  	99.569691 
2015.674219  	99.819353 
2017.099731  	99.798513 
2018.525244  	99.438538 
2019.950756  	99.546526 
2021.376268  	99.809938 
2022.801780  	99.748265 
2024.227292  	99.782866 
2025.652804  	99.870273 
2027.078317  	99.762807 
2028.503829  	99.813537 
2029.929341  	99.871521 
2031.354853  	99.690508 
2032.780365  	99.679026 
2034.205877  	99.685551 
2035.631390  	99.471142 
2037.056902  	99.423106 
2038.482414  	99.440973 
2039.907926  	99.410729 
2041.333438  	99.592799 
2042.758951  	99.664472 
2044.184463  	99.523705 
2045.609975  	99.546980 
2047.035487  	99.627618 
2048.460999  	99.578301 
2049.886511  	99.510502 
2051.312024  	99.511177 
2052.737536  	99.595535 
2054.163048  	99.592643 
2055.588560  	99.517246 
2057.014072  	99.613729 
2058.439584  	99.695734 
2059.865097  	99.610105 
2061.290609  	99.624061 
2062.716121  	99.680436 
2064.141633  	99.563412 
2065.567145  	99.492482 
2066.992658  	99.645664 
2068.418170  	99.758059 
2069.843682  	99.609918 
2071.269194  	99.427128 
2072.694706  	99.432908 
2074.120218  	99.473153 
2075.545731  	99.526817 
2076.971243  	99.669991 
2078.396755  	99.736247 
2079.822267  	99.739076 
2081.247779  	99.804342 
2082.673291  	99.781512 
2084.098804  	99.710409 
2085.524316  	99.759118 
2086.949828  	99.803213 
2088.375340  	99.824053 
2089.800852  	99.817868 
2091.226365  	99.597518 
2092.651877  	99.375443 
2094.077389  	99.366761 
2095.502901  	99.375454 
2096.928413  	99.479867 
2098.353925  	99.706916 
2099.779438  	99.674172 
2101.204950  	99.602501 
2102.630462  	99.788845 
2104.055974  	99.825033 
2105.481486  	99.686727 
2106.906999  	99.676335 
2108.332511  	99.659832 
2109.758023  	99.632410 
2111.183535  	99.648661 
2112.609047  	99.550987 
2114.034559  	99.502928 
2115.460072  	99.575944 
2116.885584  	99.520031 
2118.311096  	99.432748 
2119.736608  	99.465281 
2121.162120  	99.551063 
2122.587632  	99.677531 
2124.013145  	99.651603 
2125.438657  	99.452480 
2126.864169  	99.475513 
2128.289681  	99.608749 
2129.715193  	99.537850 
2131.140706  	99.568245 
2132.566218  	99.784043 
2133.991730  	99.809544 
2135.417242  	99.701391 
2136.842754  	99.630353 
2138.268266  	99.612997 
2139.693779  	99.765428 
2141.119291  	99.829551 
2142.544803  	99.616938 
2143.970315  	99.599911 
2145.395827  	99.806778 
2146.821339  	99.722163 
2148.246852  	99.372033 
2149.672364  	99.140405 
2151.097876  	99.217759 
2152.523388  	99.417627 
2153.948900  	99.307105 
2155.374413  	99.073206 
2156.799925  	99.034916 
2158.225437  	98.942674 
2159.650949  	99.203593 
2161.076461  	99.883818 
2162.501973  	99.872117 
2163.927486  	99.442814 
2165.352998  	99.565491 
2166.778510  	99.840494 
2168.204022  	99.774659 
2169.629534  	99.777810 
2171.055047  	99.862735 
2172.480559  	99.700543 
2173.906071  	99.604100 
2175.331583  	99.660772 
2176.757095  	99.530260 
2178.182607  	99.532718 
2179.608120  	99.802672 
2181.033632  	99.809249 
2182.459144  	99.712583 
2183.884656  	99.721592 
2185.310168  	99.559174 
2186.735680  	99.498706 
2188.161193  	99.610723 
2189.586705  	99.652906 
2191.012217  	99.818335 
2192.437729  	99.767837 
2193.863241  	99.398770 
2195.288754  	99.472193 
2196.714266  	99.752204 
2198.139778  	99.726694 
2199.565290  	99.812252 
2200.990802  	99.957636 
2202.416314  	99.919407 
2203.841827  	99.856850 
2205.267339  	99.711707 
2206.692851  	99.687621 
2208.118363  	99.887351 
2209.543875  	99.842221 
2210.969387  	99.673689 
2212.394900  	99.715359 
2213.820412  	99.751423 
2215.245924  	99.785160 
2216.671436  	99.902807 
2218.096948  	100.000977 
2219.522461  	100.091229 
2220.947973  	100.065851 
2222.373485  	99.876813 
2223.798997  	99.826413 
2225.224509  	99.954686 
2226.650021  	99.925437 
2228.075534  	99.728440 
2229.501046  	99.716374 
2230.926558  	99.843502 
2232.352070  	99.846554 
2233.777582  	99.890266 
2235.203095  	99.910057 
2236.628607  	99.675148 
2238.054119  	99.604518 
2239.479631  	99.813634 
2240.905143  	99.831512 
2242.330655  	99.738490 
2243.756168  	99.748559 
2245.181680  	99.747891 
2246.607192  	99.791647 
2248.032704  	99.854999 
2249.458216  	99.790974 
2250.883728  	99.789537 
2252.309241  	99.788099 
2253.734753  	99.786661 
2255.160265  	99.785224 
2256.585777  	99.783786 
2258.011289  	99.782348 
2259.436802  	99.780910 
2260.862314  	99.779473 
2262.287826  	99.778035 
2263.713338  	99.776597 
2265.138850  	99.775160 
2266.564362  	99.773722 
2267.989875  	99.772284 
2269.415387  	99.770847 
2270.840899  	99.769409 
2272.266411  	99.767971 
2273.691923  	99.766533 
2275.117435  	99.765096 
2276.542948  	99.763658 
2277.968460  	99.762220 
2279.393972  	99.760783 
2280.819484  	99.759345 
2282.244996  	99.757907 
2283.670509  	99.756470 
2285.096021  	99.755032 
2286.521533  	99.753594 
2287.947045  	99.752156 
2289.372557  	99.750719 
2290.798069  	99.749281 
2292.223582  	99.747843 
2293.649094  	99.746406 
2295.074606  	99.744968 
2296.500118  	99.743530 
2297.925630  	99.742092 
2299.351142  	99.740655 
2300.776655  	99.739217 
2302.202167  	99.737779 
2303.627679  	99.736342 
2305.053191  	99.734904 
2306.478703  	99.733466 
2307.904216  	99.732029 
2309.329728  	99.730591 
2310.755240  	99.729153 
2312.180752  	99.727715 
2313.606264  	99.726278 
2315.031776  	99.724840 
2316.457289  	99.723402 
2317.882801  	99.721965 
2319.308313  	99.720527 
2320.733825  	99.719089 
2322.159337  	99.717652 
2323.584850  	99.716214 
2325.010362  	99.714776 
2326.435874  	99.713338 
2327.861386  	99.711901 
2329.286898  	99.710463 
2330.712410  	99.709025 
2332.137923  	99.707588 
2333.563435  	99.706150 
2334.988947  	99.704712 
2336.414459  	99.703274 
2337.839971  	99.701837 
2339.265483  	99.700399 
2340.690996  	99.698961 
2342.116508  	99.697524 
2343.542020  	99.696086 
2344.967532  	99.694648 
2346.393044  	99.693211 
2347.818557  	99.691773 
2349.244069  	99.690335 
2350.669581  	99.688897 
2352.095093  	99.687460 
2353.520605  	99.686022 
2354.946117  	99.684584 
2356.371630  	99.683147 
2357.797142  	99.681709 
2359.222654  	99.680271 
2360.648166  	99.678833 
2362.073678  	99.677396 
2363.499190  	99.675958 
2364.924703  	99.674520 
2366.350215  	99.673083 
2367.775727  	99.671645 
2369.201239  	99.670207 
2370.626751  	99.668770 
2372.052264  	99.667332 
2373.477776  	99.665894 
2374.903288  	99.664456 
2376.328800  	99.663019 
2377.754312  	99.661581 
2379.179824  	99.660143 
2380.605337  	99.658706 
2382.030849  	99.657268 
2383.456361  	99.655830 
2384.881873  	99.654393 
2386.307385  	99.652955 
2387.732898  	99.651517 
2389.158410  	99.650079 
2390.583922  	99.648642 
2392.009434  	99.647204 
2393.434946  	99.645766 
2394.860458  	99.644329 
2396.285971  	99.642891 
2397.711483  	99.641453 
2399.136995  	99.640015 
2400.562507  	99.638578 
2401.988019  	99.652041 
2403.413531  	99.682576 
2404.839044  	99.699008 
2406.264556  	99.744490 
2407.690068  	99.818320 
2409.115580  	99.781386 
2410.541092  	99.729053 
2411.966605  	99.785454 
2413.392117  	99.788172 
2414.817629  	99.685337 
2416.243141  	99.612370 
2417.668653  	99.596706 
2419.094165  	99.613486 
2420.519678  	99.657511 
2421.945190  	99.683214 
2423.370702  	99.653763 
2424.796214  	99.635935 
2426.221726  	99.680594 
2427.647238  	99.687582 
2429.072751  	99.635460 
2430.498263  	99.640309 
2431.923775  	99.690685 
2433.349287  	99.717895 
2434.774799  	99.725765 
2436.200312  	99.723095 
2437.625824  	99.731684 
2439.051336  	99.753313 
2440.476848  	99.768518 
2441.902360  	99.749059 
2443.327872  	99.669208 
2444.753385  	99.631773 
2446.178897  	99.658922 
2447.604409  	99.589278 
2449.029921  	99.495503 
2450.455433  	99.541465 
2451.880945  	99.636377 
2453.306458  	99.693789 
2454.731970  	99.679533 
2456.157482  	99.593200 
2457.582994  	99.560323 
2459.008506  	99.581324 
2460.434019  	99.582357 
2461.859531  	99.618570 
2463.285043  	99.672486 
2464.710555  	99.672909 
2466.136067  	99.631170 
2467.561579  	99.616427 
2468.987092  	99.698468 
2470.412604  	99.750659 
2471.838116  	99.653925 
2473.263628  	99.590905 
2474.689140  	99.642914 
2476.114653  	99.659858 
2477.540165  	99.614833 
2478.965677  	99.591476 
2480.391189  	99.645736 
2481.816701  	99.702552 
2483.242213  	99.640387 
2484.667726  	99.572483 
2486.093238  	99.610874 
2487.518750  	99.659483 
2488.944262  	99.708846 
2490.369774  	99.763971 
2491.795286  	99.738044 
2493.220799  	99.679077 
2494.646311  	99.665700 
2496.071823  	99.661607 
2497.497335  	99.645514 
2498.922847  	99.628357 
2500.348360  	99.613853 
2501.773872  	99.601714 
2503.199384  	99.595442 
2504.624896  	99.605397 
2506.050408  	99.631810 
2507.475920  	99.688059 
2508.901433  	99.737250 
2510.326945  	99.694943 
2511.752457  	99.639428 
2513.177969  	99.693165 
2514.603481  	99.747001 
2516.028993  	99.680318 
2517.454506  	99.592022 
2518.880018  	99.596392 
2520.305530  	99.648492 
2521.731042  	99.668896 
2523.156554  	99.690145 
2524.582067  	99.744292 
2526.007579  	99.774436 
2527.433091  	99.761294 
2528.858603  	99.739399 
2530.284115  	99.720856 
2531.709627  	99.703458 
2533.135140  	99.684209 
2534.560652  	99.692275 
2535.986164  	99.735072 
2537.411676  	99.738340 
2538.837188  	99.695536 
2540.262701  	99.683890 
2541.688213  	99.704065 
2543.113725  	99.701636 
2544.539237  	99.668051 
2545.964749  	99.672621 
2547.390261  	99.745774 
2548.815774  	99.771956 
2550.241286  	99.717698 
2551.666798  	99.711625 
2553.092310  	99.763241 
2554.517822  	99.776645 
2555.943334  	99.737682 
2557.368847  	99.697759 
2558.794359  	99.715959 
2560.219871  	99.770197 
2561.645383  	99.789844 
2563.070895  	99.791967 
2564.496408  	99.800249 
2565.921920  	99.792256 
2567.347432  	99.785746 
2568.772944  	99.799201 
2570.198456  	99.811255 
2571.623968  	99.797399 
2573.049481  	99.773622 
2574.474993  	99.784127 
2575.900505  	99.811548 
2577.326017  	99.829341 
2578.751529  	99.848742 
2580.177041  	99.831771 
2581.602554  	99.787619 
2583.028066  	99.787170 
2584.453578  	99.804589 
2585.879090  	99.805121 
2587.304602  	99.800687 
2588.730115  	99.804111 
2590.155627  	99.848002 
2591.581139  	99.873189 
2593.006651  	99.822894 
2594.432163  	99.793220 
2595.857675  	99.799105 
2597.283188  	99.792569 
2598.708700  	99.795482 
2600.134212  	99.761860 
2601.559724  	99.727228 
2602.985236  	99.788131 
2604.410749  	99.826652 
2605.836261  	99.791476 
2607.261773  	99.790957 
2608.687285  	99.793680 
2610.112797  	99.782555 
2611.538309  	99.802173 
2612.963822  	99.794238 
2614.389334  	99.766113 
2615.814846  	99.775113 
2617.240358  	99.774815 
2618.665870  	99.742205 
2620.091382  	99.725536 
2621.516895  	99.745178 
2622.942407  	99.752000 
2624.367919  	99.708119 
2625.793431  	99.679220 
2627.218943  	99.695375 
2628.644456  	99.705512 
2630.069968  	99.726348 
2631.495480  	99.755704 
2632.920992  	99.735846 
2634.346504  	99.702620 
2635.772016  	99.706209 
2637.197529  	99.726452 
2638.623041  	99.738890 
2640.048553  	99.724926 
2641.474065  	99.707468 
2642.899577  	99.724295 
2644.325089  	99.733937 
2645.750602  	99.705787 
2647.176114  	99.692384 
2648.601626  	99.712177 
2650.027138  	99.717522 
2651.452650  	99.695839 
2652.878163  	99.685025 
2654.303675  	99.698137 
2655.729187  	99.707898 
2657.154699  	99.696087 
2658.580211  	99.683676 
2660.005723  	99.703836 
2661.431236  	99.737783 
2662.856748  	99.741633 
2664.282260  	99.726204 
2665.707772  	99.712574 
2667.133284  	99.698998 
2668.558796  	99.695614 
2669.984309  	99.694334 
2671.409821  	99.693838 
2672.835333  	99.714345 
2674.260845  	99.716158 
2675.686357  	99.678242 
2677.111870  	99.663458 
2678.537382  	99.683102 
2679.962894  	99.694569 
2681.388406  	99.692960 
2682.813918  	99.692292 
2684.239430  	99.698307 
2685.664943  	99.690073 
2687.090455  	99.664258 
2688.515967  	99.660873 
2689.941479  	99.656340 
2691.366991  	99.617198 
2692.792504  	99.607777 
2694.218016  	99.644288 
2695.643528  	99.666503 
2697.069040  	99.671321 
2698.494552  	99.663402 
2699.920064  	99.636478 
2701.345577  	99.629478 
2702.771089  	99.638932 
2704.196601  	99.621926 
2705.622113  	99.613549 
2707.047625  	99.650195 
2708.473137  	99.678368 
2709.898650  	99.664960 
2711.324162  	99.638868 
2712.749674  	99.616205 
2714.175186  	99.616343 
2715.600698  	99.644280 
2717.026211  	99.653423 
2718.451723  	99.644175 
2719.877235  	99.645066 
2721.302747  	99.625107 
2722.728259  	99.605984 
2724.153771  	99.634728 
2725.579284  	99.647929 
2727.004796  	99.630121 
2728.430308  	99.645005 
2729.855820  	99.642156 
2731.281332  	99.591102 
2732.706844  	99.589067 
2734.132357  	99.634834 
2735.557869  	99.646489 
2736.983381  	99.628052 
2738.408893  	99.598851 
2739.834405  	99.585491 
2741.259918  	99.628662 
2742.685430  	99.665243 
2744.110942  	99.638253 
2745.536454  	99.611539 
2746.961966  	99.609726 
2748.387478  	99.606897 
2749.812991  	99.613640 
2751.238503  	99.613832 
2752.664015  	99.596897 
2754.089527  	99.596294 
2755.515039  	99.608507 
2756.940552  	99.608875 
2758.366064  	99.595432 
2759.791576  	99.585745 
2761.217088  	99.599575 
2762.642600  	99.603991 
2764.068112  	99.577524 
2765.493625  	99.576901 
2766.919137  	99.617580 
2768.344649  	99.643241 
2769.770161  	99.625045 
2771.195673  	99.598237 
2772.621185  	99.618862 
2774.046698  	99.657919 
2775.472210  	99.654015 
2776.897722  	99.646480 
2778.323234  	99.661013 
2779.748746  	99.654918 
2781.174259  	99.631588 
2782.599771  	99.619289 
2784.025283  	99.639535 
2785.450795  	99.674150 
2786.876307  	99.656446 
2788.301819  	99.627012 
2789.727332  	99.651706 
2791.152844  	99.657170 
2792.578356  	99.628247 
2794.003868  	99.620731 
2795.429380  	99.597513 
2796.854892  	99.575050 
2798.280405  	99.612147 
2799.705917  	99.651441 
2801.131429  	99.651156 
2802.556941  	99.629661 
2803.982453  	99.599054 
2805.407966  	99.603930 
2806.833478  	99.627389 
2808.258990  	99.598349 
2809.684502  	99.564296 
2811.110014  	99.573176 
2812.535526  	99.573641 
2813.961039  	99.574250 
2815.386551  	99.609443 
2816.812063  	99.639299 
2818.237575  	99.632844 
2819.663087  	99.601988 
2821.088600  	99.586371 
2822.514112  	99.603481 
2823.939624  	99.597129 
2825.365136  	99.566890 
2826.790648  	99.576316 
2828.216160  	99.598136 
2829.641673  	99.600833 
2831.067185  	99.614235 
2832.492697  	99.628840 
2833.918209  	99.622340 
2835.343721  	99.582591 
2836.769233  	99.536056 
2838.194746  	99.558144 
2839.620258  	99.595170 
2841.045770  	99.547659 
2842.471282  	99.497338 
2843.896794  	99.520251 
2845.322307  	99.567401 
2846.747819  	99.597645 
2848.173331  	99.587481 
2849.598843  	99.561640 
2851.024355  	99.563046 
2852.449867  	99.571197 
2853.875380  	99.592525 
2855.300892  	99.623163 
2856.726404  	99.614194 
2858.151916  	99.601624 
2859.577428  	99.612358 
2861.002940  	99.597260 
2862.428453  	99.565386 
2863.853965  	99.561200 
2865.279477  	99.582449 
2866.704989  	99.581295 
2868.130501  	99.543849 
2869.556014  	99.537813 
2870.981526  	99.552739 
2872.407038  	99.525374 
2873.832550  	99.511626 
2875.258062  	99.521893 
2876.683574  	99.496128 
2878.109087  	99.493394 
2879.534599  	99.541718 
2880.960111  	99.556584 
2882.385623  	99.532662 
2883.811135  	99.541286 
2885.236647  	99.577194 
2886.662160  	99.564290 
2888.087672  	99.526089 
2889.513184  	99.542497 
2890.938696  	99.552016 
2892.364208  	99.523432 
2893.789721  	99.535685 
2895.215233  	99.533153 
2896.640745  	99.488778 
2898.066257  	99.517016 
2899.491769  	99.568436 
2900.917281  	99.555380 
2902.342794  	99.560780 
2903.768306  	99.592926 
2905.193818  	99.574801 
2906.619330  	99.535951 
2908.044842  	99.538472 
2909.470355  	99.564515 
2910.895867  	99.548248 
2912.321379  	99.505119 
2913.746891  	99.516063 
2915.172403  	99.539725 
2916.597915  	99.520677 
2918.023428  	99.553209 
2919.448940  	99.641821 
2920.874452  	99.646409 
2922.299964  	99.561941 
2923.725476  	99.488629 
2925.150988  	99.460065 
2926.576501  	99.488660 
2928.002013  	99.561634 
2929.427525  	99.603610 
2930.853037  	99.587906 
2932.278549  	99.563383 
2933.704062  	99.555393 
2935.129574  	99.554994 
2936.555086  	99.553360 
2937.980598  	99.545462 
2939.406110  	99.547886 
2940.831622  	99.580740 
2942.257135  	99.607952 
2943.682647  	99.584286 
2945.108159  	99.555474 
2946.533671  	99.580893 
2947.959183  	99.633169 
2949.384695  	99.675625 
2950.810208  	99.678229 
2952.235720  	99.600901 
2953.661232  	99.516553 
2955.086744  	99.534348 
2956.512256  	99.610050 
2957.937769  	99.652875 
2959.363281  	99.646465 
2960.788793  	99.614536 
2962.214305  	99.617274 
2963.639817  	99.665325 
2965.065329  	99.681639 
2966.490842  	99.657390 
2967.916354  	99.661574 
2969.341866  	99.699875 
2970.767378  	99.723315 
2972.192890  	99.710905 
2973.618403  	99.676278 
2975.043915  	99.641794 
2976.469427  	99.625283 
2977.894939  	99.640034 
2979.320451  	99.688077 
2980.745963  	99.725850 
2982.171476  	99.716721 
2983.596988  	99.712170 
2985.022500  	99.726420 
2986.448012  	99.693457 
2987.873524  	99.650639 
2989.299036  	99.637359 
2990.724549  	99.588002 
2992.150061  	99.555288 
2993.575573  	99.604491 
2995.001085  	99.633297 
2996.426597  	99.620424 
2997.852110  	99.631429 
2999.277622  	99.647775 
3000.703134  	99.658400 
3002.128646  	99.657193 
3003.554158  	99.633793 
3004.979670  	99.622712 
3006.405183  	99.625889 
3007.830695  	99.643790 
3009.256207  	99.670098 
3010.681719  	99.648499 
3012.107231  	99.620588 
3013.532743  	99.643436 
3014.958256  	99.649379 
3016.383768  	99.622184 
3017.809280  	99.612545 
3019.234792  	99.624057 
3020.660304  	99.626810 
3022.085817  	99.584732 
3023.511329  	99.538870 
3024.936841  	99.551197 
3026.362353  	99.590086 
3027.787865  	99.632054 
3029.213377  	99.647880 
3030.638890  	99.592810 
3032.064402  	99.554802 
3033.489914  	99.607258 
3034.915426  	99.663520 
3036.340938  	99.667473 
3037.766450  	99.673840 
3039.191963  	99.701693 
3040.617475  	99.672770 
3042.042987  	99.611720 
3043.468499  	99.641418 
3044.894011  	99.674850 
3046.319524  	99.606667 
3047.745036  	99.563861 
3049.170548  	99.592716 
3050.596060  	99.641011 
3052.021572  	99.699658 
3053.447084  	99.678584 
3054.872597  	99.596156 
3056.298109  	99.582850 
3057.723621  	99.582170 
3059.149133  	99.539175 
3060.574645  	99.524574 
3062.000158  	99.545374 
3063.425670  	99.573006 
3064.851182  	99.581283 
3066.276694  	99.580697 
3067.702206  	99.621470 
3069.127718  	99.648214 
3070.553231  	99.603600 
3071.978743  	99.548374 
3073.404255  	99.535100 
3074.829767  	99.554297 
3076.255279  	99.545082 
3077.680791  	99.488203 
3079.106304  	99.459870 
3080.531816  	99.461705 
3081.957328  	99.464437 
3083.382840  	99.516190 
3084.808352  	99.587054 
3086.233865  	99.601697 
3087.659377  	99.573850 
3089.084889  	99.564692 
3090.510401  	99.597192 
3091.935913  	99.593388 
3093.361425  	99.529646 
3094.786938  	99.514408 
3096.212450  	99.550945 
3097.637962  	99.582061 
3099.063474  	99.613879 
3100.488986  	99.605956 
3101.914498  	99.590966 
3103.340011  	99.621494 
3104.765523  	99.582610 
3106.191035  	99.498118 
3107.616547  	99.521672 
3109.042059  	99.572261 
3110.467572  	99.556212 
3111.893084  	99.543111 
3113.318596  	99.526227 
3114.744108  	99.468504 
3116.169620  	99.434832 
3117.595132  	99.485141 
3119.020645  	99.566150 
3120.446157  	99.562553 
3121.871669  	99.489165 
3123.297181  	99.468613 
3124.722693  	99.492899 
3126.148206  	99.496747 
3127.573718  	99.521339 
3128.999230  	99.579167 
3130.424742  	99.590403 
3131.850254  	99.529135 
3133.275766  	99.477319 
3134.701279  	99.482529 
3136.126791  	99.461979 
3137.552303  	99.393675 
3138.977815  	99.376547 
3140.403327  	99.397333 
3141.828839  	99.402216 
3143.254352  	99.449687 
3144.679864  	99.504629 
3146.105376  	99.486121 
3147.530888  	99.468606 
3148.956400  	99.477898 
3150.381913  	99.469451 
3151.807425  	99.492117 
3153.232937  	99.509928 
3154.658449  	99.440513 
3156.083961  	99.396236 
3157.509473  	99.465478 
3158.934986  	99.539433 
3160.360498  	99.534385 
3161.786010  	99.475797 
3163.211522  	99.415707 
3164.637034  	99.411621 
3166.062546  	99.477204 
3167.488059  	99.544786 
3168.913571  	99.557912 
3170.339083  	99.551251 
3171.764595  	99.552757 
3173.190107  	99.530721 
3174.615620  	99.493756 
3176.041132  	99.454436 
3177.466644  	99.378698 
3178.892156  	99.314090 
3180.317668  	99.333608 
3181.743180  	99.377793 
3183.168693  	99.390841 
3184.594205  	99.412386 
3186.019717  	99.451365 
3187.445229  	99.473540 
3188.870741  	99.468095 
3190.296254  	99.431846 
3191.721766  	99.388321 
3193.147278  	99.385175 
3194.572790  	99.409463 
3195.998302  	99.423224 
3197.423814  	99.445096 
3198.849327  	99.462203 
3200.274839  	99.422252 
3201.700351  	99.371270 
3203.125863  	99.375336 
3204.551375  	99.404755 
3205.976887  	99.446514 
3207.402400  	99.499931 
3208.827912  	99.493689 
3210.253424  	99.433572 
3211.678936  	99.419334 
3213.104448  	99.425015 
3214.529961  	99.388034 
3215.955473  	99.391794 
3217.380985  	99.471227 
3218.806497  	99.508176 
3220.232009  	99.483107 
3221.657521  	99.494528 
3223.083034  	99.510343 
3224.508546  	99.448118 
3225.934058  	99.384923 
3227.359570  	99.405767 
3228.785082  	99.425544 
3230.210594  	99.373999 
3231.636107  	99.355736 
3233.061619  	99.434500 
3234.487131  	99.475773 
3235.912643  	99.422989 
3237.338155  	99.418997 
3238.763668  	99.471207 
3240.189180  	99.461794 
3241.614692  	99.444900 
3243.040204  	99.466021 
3244.465716  	99.464253 
3245.891228  	99.465544 
3247.316741  	99.453058 
3248.742253  	99.409487 
3250.167765  	99.443515 
3251.593277  	99.483372 
3253.018789  	99.435332 
3254.444301  	99.439802 
3255.869814  	99.473202 
3257.295326  	99.453701 
3258.720838  	99.488661 
3260.146350  	99.533214 
3261.571862  	99.515442 
3262.997375  	99.484984 
3264.422887  	99.416540 
3265.848399  	99.394329 
3267.273911  	99.447095 
3268.699423  	99.411740 
3270.124935  	99.383490 
3271.550448  	99.456484 
3272.975960  	99.481210 
3274.401472  	99.488373 
3275.826984  	99.496470 
3277.252496  	99.441448 
3278.678009  	99.460158 
3280.103521  	99.530133 
3281.529033  	99.499089 
3282.954545  	99.414186 
3284.380057  	99.329866 
3285.805569  	99.318867 
3287.231082  	99.395909 
3288.656594  	99.403571 
3290.082106  	99.381187 
3291.507618  	99.417185 
3292.933130  	99.397911 
3294.358642  	99.369286 
3295.784155  	99.420587 
3297.209667  	99.462402 
3298.635179  	99.488108 
3300.060691  	99.519273 
3301.486203  	99.496012 
3302.911716  	99.425723 
3304.337228  	99.380065 
3305.762740  	99.417199 
3307.188252  	99.494847 
3308.613764  	99.495498 
3310.039276  	99.414620 
3311.464789  	99.354437 
3312.890301  	99.381245 
3314.315813  	99.451719 
3315.741325  	99.477310 
3317.166837  	99.494707 
3318.592349  	99.529996 
3320.017862  	99.490135 
3321.443374  	99.436475 
3322.868886  	99.481227 
3324.294398  	99.496861 
3325.719910  	99.415612 
3327.145423  	99.393783 
3328.570935  	99.451554 
3329.996447  	99.448699 
3331.421959  	99.383279 
3332.847471  	99.372635 
3334.272983  	99.451034 
3335.698496  	99.529195 
3337.124008  	99.518316 
3338.549520  	99.438927 
3339.975032  	99.364614 
3341.400544  	99.349695 
3342.826057  	99.414050 
3344.251569  	99.491145 
3345.677081  	99.520526 
3347.102593  	99.503702 
3348.528105  	99.420073 
3349.953617  	99.361801 
3351.379130  	99.431045 
3352.804642  	99.454205 
3354.230154  	99.372008 
3355.655666  	99.390653 
3357.081178  	99.474644 
3358.506690  	99.490462 
3359.932203  	99.521811 
3361.357715  	99.576226 
3362.783227  	99.528144 
3364.208739  	99.390105 
3365.634251  	99.350347 
3367.059764  	99.486058 
3368.485276  	99.620308 
3369.910788  	99.629905 
3371.336300  	99.540408 
3372.761812  	99.438722 
3374.187324  	99.445754 
3375.612837  	99.447834 
3377.038349  	99.365816 
3378.463861  	99.400525 
3379.889373  	99.465306 
3381.314885  	99.459100 
3382.740397  	99.577826 
3384.165910  	99.644871 
3385.591422  	99.528560 
3387.016934  	99.513896 
3388.442446  	99.571318 
3389.867958  	99.613300 
3391.293471  	99.677478 
3392.718983  	99.603345 
3394.144495  	99.487583 
3395.570007  	99.480377 
3396.995519  	99.442367 
3398.421031  	99.416112 
3399.846544  	99.445449 
3401.272056  	99.484962 
3402.697568  	99.585800 
3404.123080  	99.599160 
3405.548592  	99.503550 
3406.974105  	99.505716 
3408.399617  	99.524382 
3409.825129  	99.508490 
3411.250641  	99.549746 
3412.676153  	99.548915 
3414.101665  	99.489486 
3415.527178  	99.481752 
3416.952690  	99.520930 
3418.378202  	99.515315 
3419.803714  	99.445655 
3421.229226  	99.466325 
3422.654738  	99.556547 
3424.080251  	99.552505 
3425.505763  	99.555112 
3426.931275  	99.584164 
3428.356787  	99.534740 
3429.782299  	99.488675 
3431.207812  	99.436071 
3432.633324  	99.396396 
3434.058836  	99.511705 
3435.484348  	99.670869 
3436.909860  	99.740222 
3438.335372  	99.716040 
3439.760885  	99.641605 
3441.186397  	99.666692 
3442.611909  	99.734888 
3444.037421  	99.695911 
3445.462933  	99.636651 
3446.888445  	99.598991 
3448.313958  	99.623456 
3449.739470  	99.683543 
3451.164982  	99.584800 
3452.590494  	99.483428 
3454.016006  	99.603191 
3455.441519  	99.716081 
3456.867031  	99.715735 
3458.292543  	99.729941 
3459.718055  	99.717410 
3461.143567  	99.637162 
3462.569079  	99.597791 
3463.994592  	99.672152 
3465.420104  	99.724573 
3466.845616  	99.652182 
3468.271128  	99.602118 
3469.696640  	99.598856 
3471.122152  	99.588041 
3472.547665  	99.683608 
3473.973177  	99.787007 
3475.398689  	99.732714 
3476.824201  	99.675218 
3478.249713  	99.689228 
3479.675226  	99.655786 
3481.100738  	99.604094 
3482.526250  	99.652850 
3483.951762  	99.687026 
3485.377274  	99.544629 
3486.802786  	99.427471 
3488.228299  	99.507201 
3489.653811  	99.587466 
3491.079323  	99.673863 
3492.504835  	99.804987 
3493.930347  	99.764782 
3495.355860  	99.670880 
3496.781372  	99.697778 
3498.206884  	99.648211 
3499.632396  	99.558230 
3501.057908  	99.589014 
3502.483420  	99.616987 
3503.908933  	99.593430 
3505.334445  	99.629273 
3506.759957  	99.700322 
3508.185469  	99.719073 
3509.610981  	99.713333 
3511.036493  	99.768753 
3512.462006  	99.780938 
3513.887518  	99.689841 
3515.313030  	99.661309 
3516.738542  	99.671206 
3518.164054  	99.590156 
3519.589567  	99.548351 
3521.015079  	99.579708 
3522.440591  	99.591636 
3523.866103  	99.685449 
3525.291615  	99.807565 
3526.717127  	99.780799 
3528.142640  	99.729597 
3529.568152  	99.726953 
3530.993664  	99.678769 
3532.419176  	99.720630 
3533.844688  	99.816558 
3535.270200  	99.710833 
3536.695713  	99.597276 
3538.121225  	99.676068 
3539.546737  	99.672306 
3540.972249  	99.686653 
3542.397761  	99.687767 
3543.823274  	99.690012 
3545.248786  	99.691610 
3546.674298  	99.686557 
3548.099810  	99.684264 
3549.525322  	99.683047 
3550.950834  	99.678842 
3552.376347  	99.683274 
3553.801859  	99.698842 
3555.227371  	99.707607 
3556.652883  	99.713358 
3558.078395  	99.702454 
3559.503908  	99.702578 
3560.929420  	99.713619 
3562.354932  	99.724218 
3563.780444  	99.727721 
3565.205956  	99.732217 
3566.631468  	99.739316 
3568.056981  	99.740377 
3569.482493  	99.739683 
3570.908005  	99.740466 
3572.333517  	99.818942 
3573.759029  	99.763930 
3575.184541  	99.778828 
3576.610054  	99.782854 
3578.035566  	99.777314 
3579.461078  	99.777738 
3580.886590  	99.787361 
3582.312102  	99.799355 
3583.737615  	99.809235 
3585.163127  	99.811056 
3586.588639  	99.809042 
3588.014151  	99.810973 
3589.439663  	99.813653 
3590.865175  	99.812607 
3592.290688  	99.814506 
3593.716200  	99.822843 
3595.141712  	99.835576 
3596.567224  	99.841938 
3597.992736  	99.836397 
3599.418248  	99.828355 
3600.843761  	99.825769 
3602.269273  	99.823486 
3603.694785  	99.821665 
3605.120297  	99.826914 
3606.545809  	99.834845 
3607.971322  	99.838758 
3609.396834  	99.836195 
3610.822346  	99.837561 
3612.247858  	99.841753 
3613.673370  	99.842512 
3615.098882  	99.851780 
3616.524395  	99.874373 
3617.949907  	99.878964 
3619.375419  	99.867082 
3620.800931  	99.865104 
3622.226443  	99.873634 
3623.651955  	99.882515 
3625.077468  	99.889918 
3626.502980  	99.901747 
3627.928492  	99.904323 
3629.354004  	99.892107 
3630.779516  	99.867898 
3632.205029  	99.849499 
3633.630541  	99.848920 
3635.056053  	99.854689 
3636.481565  	99.928811 
3637.907077  	99.887062 
3639.332589  	99.835590 
3640.758102  	99.771854 
3642.183614  	99.831793 
3643.609126  	99.842471 
3645.034638  	99.885922 
3646.460150  	99.892353 
3647.885663  	99.888204 
3649.311175  	99.875836 
3650.736687  	99.863409 
3652.162199  	99.860337 
3653.587711  	99.871351 
3655.013223  	99.888116 
3656.438736  	99.905022 
3657.864248  	99.910949 
3659.289760  	99.872060 
3660.715272  	99.794463 
3662.140784  	99.762780 
3663.566296  	99.815768 
3664.991809  	99.852381 
3666.417321  	99.895199 
3667.842833  	99.883679 
3669.268345  	99.863215 
3670.693857  	99.848393 
3672.119370  	99.840282 
3673.544882  	99.837952 
3674.970394  	99.834806 
3676.395906  	99.832839 
3677.821418  	99.834448 
3679.246930  	99.835357 
3680.672443  	99.821881 
3682.097955  	99.759338 
3683.523467  	99.800636 
3684.948979  	99.804974 
3686.374491  	99.799484 
3687.800003  	99.784086 
3689.225516  	99.784508 
3690.651028  	99.775563 
3692.076540  	99.761395 
3693.502052  	99.753614 
3694.927564  	99.751096 
3696.353077  	99.759777 
3697.778589  	99.770189 
3699.204101  	99.799864 
3700.629613  	99.806417 
3702.055125  	99.801450 
3703.480637  	99.793496 
3704.906150  	99.775692 
3706.331662  	99.813520 
3707.757174  	99.825258 
3709.182686  	99.835924 
3710.608198  	99.844043 
3712.033711  	99.835783 
3713.459223  	99.829578 
3714.884735  	99.837847 
3716.310247  	99.938380 
3717.735759  	99.854780 
3719.161271  	99.867513 
3720.586784  	99.876826 
3722.012296  	99.875681 
3723.437808  	99.875460 
3724.863320  	99.872810 
3726.288832  	99.876644 
3727.714344  	99.881178 
3729.139857  	99.870945 
3730.565369  	99.871886 
3731.990881  	99.896921 
3733.416393  	99.888012 
3734.841905  	99.872853 
3736.267418  	99.886573 
3737.692930  	99.912557 
3739.118442  	99.932078 
3740.543954  	99.947304 
3741.969466  	99.954396 
3743.394978  	99.948484 
3744.820491  	99.940715 
3746.246003  	99.936489 
3747.671515  	99.938895 
3749.097027  	99.939404 
3750.522539  	99.930756 
3751.948051  	99.923927 
3753.373564  	99.918261 
3754.799076  	99.895893 
3756.224588  	99.870921 
3757.650100  	99.873743 
3759.075612  	99.875106 
3760.501125  	99.853133 
3761.926637  	99.811135 
3763.352149  	99.780280 
3764.777661  	99.774891 
3766.203173  	99.775831 
3767.628685  	99.777364 
3769.054198  	99.763912 
3770.479710  	99.753256 
3771.905222  	99.746960 
3773.330734  	99.776791 
3774.756246  	99.797351 
3776.181759  	99.762868 
3777.607271  	99.766694 
3779.032783  	99.777256 
3780.458295  	99.779028 
3781.883807  	99.780332 
3783.309319  	99.800093 
3784.734832  	99.814213 
3786.160344  	99.812387 
3787.585856  	99.816721 
3789.011368  	99.828395 
3790.436880  	99.812043 
3791.862392  	99.813348 
3793.287905  	99.826870 
3794.713417  	99.848539 
3796.138929  	99.856657 
3797.564441  	99.861970 
3798.989953  	99.871198 
3800.415466  	99.873809 
3801.840978  	99.875356 
3803.266490  	99.885390 
3804.692002  	99.884706 
3806.117514  	99.872941 
3807.543026  	99.868034 
3808.968539  	99.878587 
3810.394051  	99.936404 
3811.819563  	99.882420 
3813.245075  	99.883422 
3814.670587  	99.895439 
3816.096099  	99.900104 
3817.521612  	99.896358 
3818.947124  	99.892314 
3820.372636  	99.886465 
3821.798148  	99.874581 
3823.223660  	99.862589 
3824.649173  	99.864455 
3826.074685  	99.864177 
3827.500197  	99.853976 
3828.925709  	99.863792 
3830.351221  	99.891458 
3831.776733  	99.903652 
3833.202246  	99.895276 
3834.627758  	99.894391 
3836.053270  	99.890757 
3837.478782  	99.872458 
3838.904294  	99.857545 
3840.329806  	99.866509 
3841.755319  	99.875592 
3843.180831  	99.866426 
3844.606343  	99.862740 
3846.031855  	99.868551 
3847.457367  	99.765852 
3848.882880  	99.880694 
3850.308392  	99.886288 
3851.733904  	99.892153 
3853.159416  	99.885727 
3854.584928  	99.862152 
3856.010440  	99.847260 
3857.435953  	99.851556 
3858.861465  	99.850611 
3860.286977  	99.851474 
3861.712489  	99.866447 
3863.138001  	99.875512 
3864.563514  	99.863778 
3865.989026  	99.855399 
3867.414538  	99.865286 
3868.840050  	99.870110 
3870.265562  	99.860571 
3871.691074  	99.852361 
3873.116587  	99.852711 
3874.542099  	99.848005 
3875.967611  	99.838457 
3877.393123  	99.847169 
3878.818635  	99.864760 
3880.244147  	99.868423 
3881.669660  	99.858384 
3883.095172  	99.859501 
3884.520684  	99.862265 
3885.946196  	99.856268 
3887.371708  	99.852328 
3888.797221  	99.854650 
3890.222733  	99.853300 
3891.648245  	99.846479 
3893.073757  	99.844000 
3894.499269  	99.854797 
3895.924781  	99.866218 
3897.350294  	99.867037 
3898.775806  	99.867978 
3900.201318  	99.872354 
3901.626830  	99.866830 
3903.052342  	99.854644 
3904.477854  	99.848597 
3905.903367  	99.845933 
3907.328879  	99.844988 
3908.754391  	99.845949 
3910.179903  	99.891187 
3911.605415  	99.843959 
3913.030928  	99.837600 
3914.456440  	99.830168 
3915.881952  	99.819958 
3917.307464  	99.813447 
3918.732976  	99.806467 
3920.158488  	99.799083 
3921.584001  	99.789885 
3923.009513  	99.781062 
3924.435025  	99.777798 
3925.860537  	99.777080 
3927.286049  	99.776671 
3928.711562  	99.779677 
3930.137074  	99.782847 
3931.562586  	99.780121 
3932.988098  	99.775203 
3934.413610  	99.772528 
3935.839122  	99.796291 
3937.264635  	99.775216 
3938.690147  	99.783669 
3940.115659  	99.791430 
3941.541171  	99.793861 
3942.966683  	99.792982 
3944.392195  	99.789489 
3945.817708  	99.790679 
3947.243220  	99.792388 
3948.668732  	99.788342 
3950.094244  	99.787697 
3951.519756  	99.790426 
3952.945269  	99.790191 
3954.370781  	99.779745 
3955.796293  	99.790321 
3957.221805  	99.793354 
3958.647317  	99.760811 
3960.072829  	99.728036 
3961.498342  	99.778987 
3962.923854  	99.827638 
3964.349366  	99.825769 
3965.774878  	99.809621 
3967.200390  	99.783735 
3968.625902  	99.750489 
3970.051415  	99.777113 
3971.476927  	99.830435 
3972.902439  	99.780463 
3974.327951  	99.684930 
3975.753463  	99.695194 
3977.178976  	99.763001 
3978.604488  	99.779103 
3980.030000  	99.754784 
3981.455512  	99.737794 
3982.881024  	99.742989 
3984.306536  	99.752557 
3985.732049  	99.759990 
3987.157561  	99.776838 
3988.583073  	99.762482 
3990.008585  	99.697175 
3991.434097  	99.677995 
3992.859610  	99.748146 
3994.285122  	99.791937 
3995.710634  	99.745677 
3997.136146  	99.728899 
3998.561658  	99.791158 
3999.987170  	99.793755 