##TITLE=EP ATR
##DATA TYPE=INFRARED SPECTRUM
##XUNITS=1/CM
##YUNITS=%T
500.354774  	90.271870 
501.780287  	90.700413 
503.205799  	90.743794 
504.631311  	90.439888 
506.056823  	90.287704 
507.482335  	90.611208 
508.907847  	90.882079 
510.333360  	90.437968 
511.758872  	90.253070 
513.184384  	90.884912 
514.609896  	91.107462 
516.035408  	90.765624 
517.460920  	90.455275 
518.886433  	90.010874 
520.311945  	89.787576 
521.737457  	90.071299 
523.162969  	90.435424 
524.588481  	90.447526 
526.013994  	89.963299 
527.439506  	89.818709 
528.865018  	90.206719 
530.290530  	90.161375 
531.716042  	89.897651 
533.141554  	90.221908 
534.567067  	90.945689 
535.992579  	91.526702 
537.418091  	91.480051 
538.843603  	91.203966 
540.269115  	91.317956 
541.694627  	91.266848 
543.120140  	91.221227 
544.545652  	91.698590 
545.971164  	91.824346 
547.396676  	91.587083 
548.822188  	91.608892 
550.247701  	91.462720 
551.673213  	91.280136 
553.098725  	91.254912 
554.524237  	91.218074 
555.949749  	91.469588 
557.375261  	91.564476 
558.800774  	91.235781 
560.226286  	91.153967 
561.651798  	91.050526 
563.077310  	90.805508 
564.502822  	90.984092 
565.928335  	91.135872 
567.353847  	90.980044 
568.779359  	90.859817 
570.204871  	90.767150 
571.630383  	90.821521 
573.055895  	90.824271 
574.481408  	90.562278 
575.906920  	90.660277 
577.332432  	91.100016 
578.757944  	91.210070 
580.183456  	91.112587 
581.608968  	91.132920 
583.034481  	91.421310 
584.459993  	91.857246 
585.885505  	92.068215 
587.311017  	92.107286 
588.736529  	92.132998 
590.162042  	92.132711 
591.587554  	92.266344 
593.013066  	92.364031 
594.438578  	92.249810 
595.864090  	92.226596 
597.289602  	92.286348 
598.715115  	92.262094 
600.140627  	92.334434 
601.566139  	92.411678 
602.991651  	92.516226 
604.417163  	92.446456 
605.842675  	92.457053 
607.268188  	92.513710 
608.693700  	92.552561 
610.119212  	92.557470 
611.544724  	92.474401 
612.970236  	92.586958 
614.395749  	92.731752 
615.821261  	92.738076 
617.246773  	92.776644 
618.672285  	92.829404 
620.097797  	92.881014 
621.523309  	92.885481 
622.948822  	92.964879 
624.374334  	93.004176 
625.799846  	93.044354 
627.225358  	93.064414 
628.650870  	93.109931 
630.076383  	93.208704 
631.501895  	93.225474 
632.927407  	93.222915 
634.352919  	93.258383 
635.778431  	93.290198 
637.203943  	93.308648 
638.629456  	93.294722 
640.054968  	93.369853 
641.480480  	93.459888 
642.905992  	93.522399 
644.331504  	93.450387 
645.757016  	93.542432 
647.182529  	93.494766 
648.608041  	93.508751 
650.033553  	93.523738 
651.459065  	93.546723 
652.884577  	93.567628 
654.310090  	93.577787 
655.735602  	93.586212 
657.161114  	93.601014 
658.586626  	93.620130 
660.012138  	93.642327 
661.437650  	93.663949 
662.863163  	93.688826 
664.288675  	93.661108 
665.714187  	93.737516 
667.139699  	93.764111 
668.565211  	93.784346 
669.990723  	93.799982 
671.416236  	93.828976 
672.841748  	93.845580 
674.267260  	93.908238 
675.692772  	93.894349 
677.118284  	93.919729 
678.543797  	93.962263 
679.969309  	93.998294 
681.394821  	94.021636 
682.820333  	94.034440 
684.245845  	94.045516 
685.671357  	93.938407 
687.096870  	94.039948 
688.522382  	94.078359 
689.947894  	94.140273 
691.373406  	94.299760 
692.798918  	94.241487 
694.224430  	94.230210 
695.649943  	94.095040 
697.075455  	94.076873 
698.500967  	94.074523 
699.926479  	94.087769 
701.351991  	94.089196 
702.777504  	94.076582 
704.203016  	94.075428 
705.628528  	94.109847 
707.054040  	94.154766 
708.479552  	94.099248 
709.905064  	93.950373 
711.330577  	94.046406 
712.756089  	94.196605 
714.181601  	94.302267 
715.607113  	94.295486 
717.032625  	94.305459 
718.458138  	94.446088 
719.883650  	94.485523 
721.309162  	94.531564 
722.734674  	94.588620 
724.160186  	94.645425 
725.585698  	94.676416 
727.011211  	94.676882 
728.436723  	94.734051 
729.862235  	94.829463 
731.287747  	94.921760 
732.713259  	94.923483 
734.138771  	94.895757 
735.564284  	94.896364 
736.989796  	94.895865 
738.415308  	95.023704 
739.840820  	94.992661 
741.266332  	94.980764 
742.691845  	95.071594 
744.117357  	95.022091 
745.542869  	94.865707 
746.968381  	94.757785 
748.393893  	94.819121 
749.819405  	94.925640 
751.244918  	94.858051 
752.670430  	94.762767 
754.095942  	94.686748 
755.521454  	94.635802 
756.946966  	94.779762 
758.372478  	94.849959 
759.797991  	94.715313 
761.223503  	94.664197 
762.649015  	94.600201 
764.074527  	94.502910 
765.500039  	94.523241 
766.925552  	94.537460 
768.351064  	94.676495 
769.776576  	94.966621 
771.202088  	95.065061 
772.627600  	95.100630 
774.053112  	95.277543 
775.478625  	95.374443 
776.904137  	95.348949 
778.329649  	95.366388 
779.755161  	95.442240 
781.180673  	95.526097 
782.606186  	95.613644 
784.031698  	95.639856 
785.457210  	95.579330 
786.882722  	95.605565 
788.308234  	95.639701 
789.733746  	95.503189 
791.159259  	95.459289 
792.584771  	95.492952 
794.010283  	95.395276 
795.435795  	95.464716 
796.861307  	95.634045 
798.286819  	95.663645 
799.712332  	95.826517 
801.137844  	95.947925 
802.563356  	95.791135 
803.988868  	95.706174 
805.414380  	95.750780 
806.839893  	95.803140 
808.265405  	95.859870 
809.690917  	95.838800 
811.116429  	95.819679 
812.541941  	95.807089 
813.967453  	95.757060 
815.392966  	95.804747 
816.818478  	95.873867 
818.243990  	95.903212 
819.669502  	95.938711 
821.095014  	95.852463 
822.520526  	95.750194 
823.946039  	95.758125 
825.371551  	95.721502 
826.797063  	95.671547 
828.222575  	95.656832 
829.648087  	95.612403 
831.073600  	95.624589 
832.499112  	95.699738 
833.924624  	95.698863 
835.350136  	95.549943 
836.775648  	95.427854 
838.201160  	95.547880 
839.626673  	95.668132 
841.052185  	95.596795 
842.477697  	95.558615 
843.903209  	95.536165 
845.328721  	95.461241 
846.754234  	95.425212 
848.179746  	95.352116 
849.605258  	95.317352 
851.030770  	95.340212 
852.456282  	95.230731 
853.881794  	95.190291 
855.307307  	95.288991 
856.732819  	95.227199 
858.158331  	95.134132 
859.583843  	95.176417 
861.009355  	95.168558 
862.434867  	95.133833 
863.860380  	95.231240 
865.285892  	95.413045 
866.711404  	95.542176 
868.136916  	95.620540 
869.562428  	95.724081 
870.987941  	95.782936 
872.413453  	95.772713 
873.838965  	95.778455 
875.264477  	95.762075 
876.689989  	95.734677 
878.115501  	95.747872 
879.541014  	95.729699 
880.966526  	95.713465 
882.392038  	95.736422 
883.817550  	95.699361 
885.243062  	95.630677 
886.668574  	95.610609 
888.094087  	95.610678 
889.519599  	95.599143 
890.945111  	95.567344 
892.370623  	95.522425 
893.796135  	95.467038 
895.221648  	95.393834 
896.647160  	95.328585 
898.072672  	95.299785 
899.498184  	95.304193 
900.923696  	95.283388 
902.349208  	95.228413 
903.774721  	95.224851 
905.200233  	95.223184 
906.625745  	95.151943 
908.051257  	95.090376 
909.476769  	95.010676 
910.902281  	94.867198 
912.327794  	94.740929 
913.753306  	94.639298 
915.178818  	94.590818 
916.604330  	94.614237 
918.029842  	94.593699 
919.455355  	94.521941 
920.880867  	94.436855 
922.306379  	94.341665 
923.731891  	94.324733 
925.157403  	94.356545 
926.582915  	94.362597 
928.008428  	94.382707 
929.433940  	94.391446 
930.859452  	94.398730 
932.284964  	94.428133 
933.710476  	94.397218 
935.135989  	94.380803 
936.561501  	94.454787 
937.987013  	94.489754 
939.412525  	94.485894 
940.838037  	94.530305 
942.263549  	94.590620 
943.689062  	94.643937 
945.114574  	94.650132 
946.540086  	94.573222 
947.965598  	94.507163 
949.391110  	94.485425 
950.816622  	94.401553 
952.242135  	94.253520 
953.667647  	94.137509 
955.093159  	94.026979 
956.518671  	93.882822 
957.944183  	93.783772 
959.369696  	93.704870 
960.795208  	93.557069 
962.220720  	93.407035 
963.646232  	93.288263 
965.071744  	93.138498 
966.497256  	92.958134 
967.922769  	92.745742 
969.348281  	92.525534 
970.773793  	92.375882 
972.199305  	92.260268 
973.624817  	92.061228 
975.050329  	91.759119 
976.475842  	91.453907 
977.901354  	91.202034 
979.326866  	90.961147 
980.752378  	90.740372 
982.177890  	90.539831 
983.603403  	90.332001 
985.028915  	90.183436 
986.454427  	90.058037 
987.879939  	89.882954 
989.305451  	89.737724 
990.730963  	89.619173 
992.156476  	89.527870 
993.581988  	89.535977 
995.007500  	89.560799 
996.433012  	89.576010 
997.858524  	89.659570 
999.284037  	89.784698 
1000.709549  	89.886286 
1002.135061  	89.926842 
1003.560573  	89.988841 
1004.986085  	90.109085 
1006.411597  	90.165754 
1007.837110  	90.239452 
1009.262622  	90.395304 
1010.688134  	90.480653 
1012.113646  	90.538662 
1013.539158  	90.599997 
1014.964670  	90.623863 
1016.390183  	90.752623 
1017.815695  	90.918456 
1019.241207  	91.006029 
1020.666719  	91.141184 
1022.092231  	91.300517 
1023.517744  	91.454748 
1024.943256  	91.678621 
1026.368768  	91.933353 
1027.794280  	92.182952 
1029.219792  	92.348925 
1030.645304  	92.426268 
1032.070817  	92.577997 
1033.496329  	92.766248 
1034.921841  	92.881056 
1036.347353  	92.930478 
1037.772865  	92.897357 
1039.198377  	92.907366 
1040.623890  	93.034076 
1042.049402  	93.106990 
1043.474914  	93.156756 
1044.900426  	93.319307 
1046.325938  	93.521200 
1047.751451  	93.668953 
1049.176963  	93.760598 
1050.602475  	93.903227 
1052.027987  	94.141756 
1053.453499  	94.339454 
1054.879011  	94.539322 
1056.304524  	94.843119 
1057.730036  	95.082857 
1059.155548  	95.260795 
1060.581060  	95.539711 
1062.006572  	95.721521 
1063.432085  	95.714738 
1064.857597  	95.780732 
1066.283109  	95.846018 
1067.708621  	95.716057 
1069.134133  	95.525861 
1070.559645  	95.298798 
1071.985158  	94.957735 
1073.410670  	94.619774 
1074.836182  	94.374553 
1076.261694  	94.276442 
1077.687206  	94.375777 
1079.112718  	94.510162 
1080.538231  	94.631672 
1081.963743  	94.845903 
1083.389255  	95.023463 
1084.814767  	95.152186 
1086.240279  	95.398925 
1087.665792  	95.665814 
1089.091304  	95.818017 
1090.516816  	95.930064 
1091.942328  	96.072698 
1093.367840  	96.192958 
1094.793352  	96.245486 
1096.218865  	96.282607 
1097.644377  	96.313892 
1099.069889  	96.303404 
1100.495401  	96.273224 
1101.920913  	96.234846 
1103.346425  	96.241455 
1104.771938  	96.339146 
1106.197450  	96.407889 
1107.622962  	96.427657 
1109.048474  	96.496779 
1110.473986  	96.538172 
1111.899499  	96.514840 
1113.325011  	96.528904 
1114.750523  	96.583139 
1116.176035  	96.632403 
1117.601547  	96.664585 
1119.027059  	96.672016 
1120.452572  	96.653649 
1121.878084  	96.602458 
1123.303596  	96.558428 
1124.729108  	96.587610 
1126.154620  	96.683292 
1127.580132  	96.776257 
1129.005645  	96.791405 
1130.431157  	96.779410 
1131.856669  	96.833934 
1133.282181  	96.861477 
1134.707693  	96.784270 
1136.133206  	96.691045 
1137.558718  	96.597727 
1138.984230  	96.460104 
1140.409742  	96.309547 
1141.835254  	96.161123 
1143.260766  	96.012318 
1144.686279  	95.891246 
1146.111791  	95.830596 
1147.537303  	95.820169 
1148.962815  	95.790848 
1150.388327  	95.774678 
1151.813840  	95.851589 
1153.239352  	95.962015 
1154.664864  	96.079318 
1156.090376  	96.252516 
1157.515888  	96.455494 
1158.941400  	96.652955 
1160.366913  	96.852848 
1161.792425  	97.069335 
1163.217937  	97.293403 
1164.643449  	97.509351 
1166.068961  	97.724129 
1167.494473  	97.930421 
1168.919986  	98.115015 
1170.345498  	98.261038 
1171.771010  	98.354200 
1173.196522  	98.434886 
1174.622034  	98.531382 
1176.047547  	98.614179 
1177.473059  	98.668017 
1178.898571  	98.720206 
1180.324083  	98.778445 
1181.749595  	98.791994 
1183.175107  	98.777332 
1184.600620  	98.795624 
1186.026132  	98.787679 
1187.451644  	98.742598 
1188.877156  	98.728259 
1190.302668  	98.680087 
1191.728180  	98.592876 
1193.153693  	98.556358 
1194.579205  	98.521020 
1196.004717  	98.473035 
1197.430229  	98.462863 
1198.855741  	98.429339 
1200.281254  	98.385155 
1201.706766  	98.386649 
1203.132278  	98.374126 
1204.557790  	98.344567 
1205.983302  	98.338361 
1207.408814  	98.353534 
1208.834327  	98.401384 
1210.259839  	98.426880 
1211.685351  	98.396426 
1213.110863  	98.386785 
1214.536375  	98.399918 
1215.961888  	98.390864 
1217.387400  	98.383938 
1218.812912  	98.386788 
1220.238424  	98.374455 
1221.663936  	98.345641 
1223.089448  	98.330068 
1224.514961  	98.315302 
1225.940473  	98.252395 
1227.365985  	98.208069 
1228.791497  	98.227679 
1230.217009  	98.199185 
1231.642521  	98.128545 
1233.068034  	98.105404 
1234.493546  	98.083207 
1235.919058  	98.054387 
1237.344570  	98.047455 
1238.770082  	98.024456 
1240.195595  	98.017162 
1241.621107  	98.044706 
1243.046619  	98.054775 
1244.472131  	98.050593 
1245.897643  	98.039763 
1247.323155  	98.025074 
1248.748668  	98.022704 
1250.174180  	98.012300 
1251.599692  	98.021051 
1253.025204  	98.065285 
1254.450716  	98.073353 
1255.876228  	98.056105 
1257.301741  	98.062661 
1258.727253  	98.055768 
1260.152765  	98.030602 
1261.578277  	98.008067 
1263.003789  	97.989976 
1264.429302  	98.000297 
1265.854814  	98.020901 
1267.280326  	98.028556 
1268.705838  	98.038343 
1270.131350  	98.039375 
1271.556862  	98.045252 
1272.982375  	98.067958 
1274.407887  	98.050628 
1275.833399  	98.011601 
1277.258911  	98.010729 
1278.684423  	97.992812 
1280.109935  	97.938813 
1281.535448  	97.918301 
1282.960960  	97.912209 
1284.386472  	97.875451 
1285.811984  	97.841422 
1287.237496  	97.835364 
1288.663009  	97.839599 
1290.088521  	97.819404 
1291.514033  	97.775631 
1292.939545  	97.768053 
1294.365057  	97.779191 
1295.790569  	97.728166 
1297.216082  	97.663604 
1298.641594  	97.662584 
1300.067106  	97.679251 
1301.492618  	97.688332 
1302.918130  	97.685169 
1304.343643  	97.663486 
1305.769155  	97.651380 
1307.194667  	97.637160 
1308.620179  	97.625278 
1310.045691  	97.616069 
1311.471203  	97.606039 
1312.896716  	97.594480 
1314.322228  	97.582105 
1315.747740  	97.567881 
1317.173252  	97.553045 
1318.598764  	97.537825 
1320.024276  	97.522561 
1321.449789  	97.507683 
1322.875301  	97.493569 
1324.300813  	97.480654 
1325.726325  	97.469952 
1327.151837  	97.457558 
1328.577350  	97.444170 
1330.002862  	97.431405 
1331.428374  	97.423288 
1332.853886  	97.380476 
1334.279398  	97.416514 
1335.704910  	97.415330 
1337.130423  	97.414461 
1338.555935  	97.415029 
1339.981447  	97.416911 
1341.406959  	97.419977 
1342.832471  	97.423509 
1344.257983  	97.429905 
1345.683496  	97.476166 
1347.109008  	97.441720 
1348.534520  	97.447127 
1349.960032  	97.454345 
1351.385544  	97.475529 
1352.811057  	97.486293 
1354.236569  	97.481789 
1355.662081  	97.492422 
1357.087593  	97.472949 
1358.513105  	97.510811 
1359.938617  	97.522054 
1361.364130  	97.534105 
1362.789642  	97.548400 
1364.215154  	97.564651 
1365.640666  	97.523379 
1367.066178  	97.597339 
1368.491691  	97.616689 
1369.917203  	97.636589 
1371.342715  	97.659345 
1372.768227  	97.684963 
1374.193739  	97.710174 
1375.619251  	97.734170 
1377.044764  	97.757246 
1378.470276  	97.779837 
1379.895788  	97.800133 
1381.321300  	97.811744 
1382.746812  	97.837165 
1384.172324  	97.940706 
1385.597837  	97.866654 
1387.023349  	97.876110 
1388.448861  	97.884507 
1389.874373  	97.894118 
1391.299885  	97.903090 
1392.725398  	97.909039 
1394.150910  	97.913417 
1395.576422  	97.913195 
1397.001934  	97.908218 
1398.427446  	97.903030 
1399.852958  	97.898651 
1401.278471  	97.896356 
1402.703983  	97.895534 
1404.129495  	97.894395 
1405.555007  	97.893968 
1406.980519  	97.894614 
1408.406031  	97.856371 
1409.831544  	97.893158 
1411.257056  	97.893346 
1412.682568  	97.893773 
1414.108080  	97.895178 
1415.533592  	97.896540 
1416.959105  	97.899273 
1418.384617  	97.905503 
1419.810129  	97.913995 
1421.235641  	97.924083 
1422.661153  	97.935545 
1424.086665  	97.949237 
1425.512178  	97.961169 
1426.937690  	97.945054 
1428.363202  	97.971319 
1429.788714  	97.978837 
1431.214226  	97.987150 
1432.639739  	97.997562 
1434.065251  	98.009492 
1435.490763  	98.020549 
1436.916275  	98.030391 
1438.341787  	98.038369 
1439.767299  	98.044056 
1441.192812  	98.057474 
1442.618324  	98.071898 
1444.043836  	98.087345 
1445.469348  	98.100622 
1446.894860  	98.104403 
1448.320372  	98.104990 
1449.745885  	98.111744 
1451.171397  	98.129045 
1452.596909  	98.150763 
1454.022421  	98.169106 
1455.447933  	98.185275 
1456.873446  	98.205855 
1458.298958  	98.232165 
1459.724470  	98.263767 
1461.149982  	98.294043 
1462.575494  	98.320625 
1464.001006  	98.343141 
1465.426519  	98.364551 
1466.852031  	98.385354 
1468.277543  	98.407147 
1469.703055  	98.429916 
1471.128567  	98.461696 
1472.554079  	98.497192 
1473.979592  	98.530014 
1475.405104  	98.559706 
1476.830616  	98.584535 
1478.256128  	98.602729 
1479.681640  	98.619151 
1481.107153  	98.633825 
1482.532665  	98.644220 
1483.958177  	98.710391 
1485.383689  	98.661388 
1486.809201  	98.672389 
1488.234713  	98.684833 
1489.660226  	98.696409 
1491.085738  	98.708111 
1492.511250  	98.721407 
1493.936762  	98.735101 
1495.362274  	98.740296 
1496.787786  	98.734552 
1498.213299  	98.725583 
1499.638811  	98.715747 
1501.064323  	98.711733 
1502.489835  	98.781724 
1503.915347  	98.719555 
1505.340860  	98.724586 
1506.766372  	98.729633 
1508.191884  	98.730059 
1509.617396  	98.727410 
1511.042908  	98.725801 
1512.468420  	98.723446 
1513.893933  	98.718278 
1515.319445  	98.710062 
1516.744957  	98.698582 
1518.170469  	98.686148 
1519.595981  	98.680915 
1521.021494  	98.682810 
1522.447006  	98.686427 
1523.872518  	98.688524 
1525.298030  	98.687708 
1526.723542  	98.690517 
1528.149054  	98.696275 
1529.574567  	98.689814 
1531.000079  	98.670603 
1532.425591  	98.661315 
1533.851103  	98.652461 
1535.276615  	98.649309 
1536.702127  	98.648520 
1538.127640  	98.648224 
1539.553152  	98.647845 
1540.978664  	98.646415 
1542.404176  	98.644194 
1543.829688  	98.645914 
1545.255201  	98.653415 
1546.680713  	98.658101 
1548.106225  	98.607472 
1549.531737  	98.637102 
1550.957249  	98.623181 
1552.382761  	98.609505 
1553.808274  	98.607841 
1555.233786  	98.614090 
1556.659298  	98.622337 
1558.084810  	98.625217 
1559.510322  	98.623509 
1560.935834  	98.623808 
1562.361347  	98.623835 
1563.786859  	98.623228 
1565.212371  	98.617769 
1566.637883  	98.608585 
1568.063395  	98.592818 
1569.488908  	98.576799 
1570.914420  	98.564845 
1572.339932  	98.614901 
1573.765444  	98.574136 
1575.190956  	98.574734 
1576.616468  	98.571671 
1578.041981  	98.564472 
1579.467493  	98.450352 
1580.893005  	98.546635 
1582.318517  	98.540897 
1583.744029  	98.575492 
1585.169542  	98.525820 
1586.595054  	98.534939 
1588.020566  	98.511498 
1589.446078  	98.506307 
1590.871590  	98.513371 
1592.297102  	98.498120 
1593.722615  	98.490578 
1595.148127  	98.481214 
1596.573639  	98.469636 
1597.999151  	98.490635 
1599.424663  	98.448763 
1600.850175  	98.437545 
1602.275688  	98.428515 
1603.701200  	98.420656 
1605.126712  	98.381789 
1606.552224  	98.397584 
1607.977736  	98.384722 
1609.403249  	98.373826 
1610.828761  	98.362437 
1612.254273  	98.357263 
1613.679785  	98.375487 
1615.105297  	98.318340 
1616.530809  	98.308743 
1617.956322  	98.302192 
1619.381834  	98.255421 
1620.807346  	98.288567 
1622.232858  	98.299193 
1623.658370  	98.303447 
1625.083882  	98.298483 
1626.509395  	98.161765 
1627.934907  	98.263677 
1629.360419  	98.248403 
1630.785931  	98.331783 
1632.211443  	98.249822 
1633.636956  	98.245856 
1635.062468  	98.239481 
1636.487980  	98.232908 
1637.913492  	98.236331 
1639.339004  	98.247544 
1640.764516  	98.267976 
1642.190029  	98.271921 
1643.615541  	98.275404 
1645.041053  	98.262271 
1646.466565  	98.255728 
1647.892077  	98.257185 
1649.317590  	98.268816 
1650.743102  	98.289365 
1652.168614  	98.312442 
1653.594126  	98.336339 
1655.019638  	98.354332 
1656.445150  	98.364032 
1657.870663  	98.355219 
1659.296175  	98.458243 
1660.721687  	98.418251 
1662.147199  	98.431221 
1663.572711  	98.440469 
1664.998223  	98.442738 
1666.423736  	98.448664 
1667.849248  	98.473283 
1669.274760  	98.509715 
1670.700272  	98.541000 
1672.125784  	98.561875 
1673.551297  	98.571381 
1674.976809  	98.577307 
1676.402321  	98.585163 
1677.827833  	98.592922 
1679.253345  	98.604774 
1680.678857  	98.617564 
1682.104370  	98.632856 
1683.529882  	98.657939 
1684.955394  	98.685545 
1686.380906  	98.704354 
1687.806418  	98.716107 
1689.231930  	98.729203 
1690.657443  	98.739852 
1692.082955  	98.724648 
1693.508467  	98.747759 
1694.933979  	98.746460 
1696.359491  	98.745022 
1697.785004  	98.754509 
1699.210516  	98.772030 
1700.636028  	98.791828 
1702.061540  	98.809845 
1703.487052  	98.824159 
1704.912564  	98.833522 
1706.338077  	98.832974 
1707.763589  	98.824193 
1709.189101  	98.815019 
1710.614613  	98.813807 
1712.040125  	98.818856 
1713.465637  	98.825676 
1714.891150  	98.835304 
1716.316662  	98.846356 
1717.742174  	98.856121 
1719.167686  	98.865080 
1720.593198  	98.873521 
1722.018711  	98.877067 
1723.444223  	98.873706 
1724.869735  	98.867297 
1726.295247  	98.900868 
1727.720759  	98.855968 
1729.146271  	98.856543 
1730.571784  	98.863106 
1731.997296  	98.871219 
1733.422808  	98.878323 
1734.848320  	98.883877 
1736.273832  	98.886732 
1737.699345  	98.885586 
1739.124857  	98.881668 
1740.550369  	98.875106 
1741.975881  	98.867454 
1743.401393  	98.860939 
1744.826905  	98.856730 
1746.252418  	98.855388 
1747.677930  	98.859983 
1749.103442  	98.864997 
1750.528954  	98.866177 
1751.954466  	98.860574 
1753.379978  	98.853748 
1754.805491  	98.849812 
1756.231003  	98.848470 
1757.656515  	98.847823 
1759.082027  	98.846413 
1760.507539  	98.841748 
1761.933052  	98.836831 
1763.358564  	98.835101 
1764.784076  	98.778152 
1766.209588  	98.839766 
1767.635100  	98.842285 
1769.060612  	98.843279 
1770.486125  	98.844116 
1771.911637  	98.844232 
1773.337149  	98.843770 
1774.762661  	98.845368 
1776.188173  	98.849814 
1777.613685  	98.858961 
1779.039198  	98.869504 
1780.464710  	98.872195 
1781.890222  	98.866848 
1783.315734  	98.859371 
1784.741246  	98.855851 
1786.166759  	98.862113 
1787.592271  	98.863781 
1789.017783  	98.880116 
1790.443295  	98.882398 
1791.868807  	98.884291 
1793.294319  	98.886176 
1794.719832  	98.888334 
1796.145344  	98.891931 
1797.570856  	98.896394 
1798.996368  	98.897951 
1800.421880  	98.896754 
1801.847393  	98.893420 
1803.272905  	98.889337 
1804.698417  	98.891224 
1806.123929  	98.908032 
1807.549441  	98.896873 
1808.974953  	98.899130 
1810.400466  	98.897240 
1811.825978  	98.891616 
1813.251490  	98.888880 
1814.677002  	98.913478 
1816.102514  	98.888517 
1817.528026  	98.887657 
1818.953539  	98.886494 
1820.379051  	98.880485 
1821.804563  	98.872425 
1823.230075  	98.868409 
1824.655587  	98.868545 
1826.081100  	98.867981 
1827.506612  	98.866220 
1828.932124  	98.867934 
1830.357636  	98.873104 
1831.783148  	98.879266 
1833.208660  	98.770745 
1834.634173  	98.881317 
1836.059685  	98.879753 
1837.485197  	98.877867 
1838.910709  	98.876870 
1840.336221  	98.934871 
1841.761733  	98.871495 
1843.187246  	98.869846 
1844.612758  	98.875816 
1846.038270  	98.883401 
1847.463782  	98.887584 
1848.889294  	98.890243 
1850.314807  	98.889665 
1851.740319  	98.878820 
1853.165831  	98.882187 
1854.591343  	98.879892 
1856.016855  	98.879036 
1857.442367  	98.881411 
1858.867880  	98.885135 
1860.293392  	98.886983 
1861.718904  	98.889024 
1863.144416  	98.889770 
1864.569928  	98.892411 
1865.995440  	98.897410 
1867.420953  	98.895874 
1868.846465  	98.889101 
1870.271977  	98.889229 
1871.697489  	98.893999 
1873.123001  	98.888065 
1874.548514  	98.905842 
1875.974026  	98.914196 
1877.399538  	98.911151 
1878.825050  	98.905461 
1880.250562  	98.803114 
1881.676074  	98.896473 
1883.101587  	98.962656 
1884.527099  	98.894690 
1885.952611  	98.905150 
1887.378123  	98.899275 
1888.803635  	98.902853 
1890.229148  	98.906262 
1891.654660  	98.842866 
1893.080172  	98.896160 
1894.505684  	98.923000 
1895.931196  	98.920836 
1897.356708  	98.918390 
1898.782221  	98.966078 
1900.207733  	98.928333 
1901.633245  	98.929616 
1903.058757  	98.959935 
1904.484269  	98.940599 
1905.909781  	98.950519 
1907.335294  	98.954392 
1908.760806  	98.948293 
1910.186318  	98.937480 
1911.611830  	98.988645 
1913.037342  	98.956040 
1914.462855  	98.978805 
1915.888367  	98.932655 
1917.313879  	98.939242 
1918.739391  	98.945504 
1920.164903  	98.791835 
1921.590415  	98.948016 
1923.015928  	98.948361 
1924.441440  	98.947588 
1925.866952  	99.008819 
1927.292464  	98.973011 
1928.717976  	98.974896 
1930.143488  	98.983128 
1931.569001  	98.974153 
1932.994513  	98.983103 
1934.420025  	98.995144 
1935.845537  	99.012144 
1937.271049  	99.020585 
1938.696562  	99.024151 
1940.122074  	99.013546 
1941.547586  	99.005459 
1942.973098  	98.993321 
1944.398610  	98.983489 
1945.824122  	99.030230 
1947.249635  	98.979560 
1948.675147  	98.987076 
1950.100659  	98.988512 
1951.526171  	98.989866 
1952.951683  	98.937257 
1954.377196  	98.991120 
1955.802708  	99.002258 
1957.228220  	99.004429 
1958.653732  	99.021951 
1960.079244  	99.022026 
1961.504756  	99.010378 
1962.930269  	99.002962 
1964.355781  	99.009129 
1965.781293  	99.005730 
1967.206805  	99.007184 
1968.632317  	99.247922 
1970.057829  	99.015583 
1971.483342  	98.991654 
1972.908854  	98.974659 
1974.334366  	98.976000 
1975.759878  	98.986267 
1977.185390  	98.995022 
1978.610903  	99.006546 
1980.036415  	99.009482 
1981.461927  	98.989649 
1982.887439  	98.966663 
1984.312951  	98.930811 
1985.738463  	99.034770 
1987.163976  	99.075126 
1988.589488  	99.250897 
1990.015000  	99.048940 
1991.440512  	99.046873 
1992.866024  	99.047457 
1994.291536  	99.043608 
1995.717049  	98.991003 
1997.142561  	99.152703 
1998.568073  	99.153865 
1999.993585  	98.891408 
2001.419097  	98.901538 
2002.844610  	99.179890 
2004.270122  	99.156849 
2005.695634  	98.921533 
2007.121146  	98.858085 
2008.546658  	98.990975 
2009.972170  	99.291633 
2011.397683  	99.504110 
2012.823195  	99.397819 
2014.248707  	99.141719 
2015.674219  	99.001928 
2017.099731  	99.044753 
2018.525244  	99.142908 
2019.950756  	99.059113 
2021.376268  	98.997869 
2022.801780  	99.221647 
2024.227292  	99.353426 
2025.652804  	99.209521 
2027.078317  	99.131665 
2028.503829  	99.163652 
2029.929341  	99.274670 
2031.354853  	99.359113 
2032.780365  	99.220507 
2034.205877  	99.299827 
2035.631390  	99.580779 
2037.056902  	99.299341 
2038.482414  	98.890560 
2039.907926  	98.961601 
2041.333438  	99.056195 
2042.758951  	99.024189 
2044.184463  	99.123390 
2045.609975  	99.143228 
2047.035487  	98.998945 
2048.460999  	98.884658 
2049.886511  	98.927751 
2051.312024  	99.119279 
2052.737536  	99.267881 
2054.163048  	99.168186 
2055.588560  	98.927184 
2057.014072  	98.896902 
2058.439584  	99.097764 
2059.865097  	99.168285 
2061.290609  	99.028859 
2062.716121  	98.900451 
2064.141633  	98.831676 
2065.567145  	98.802761 
2066.992658  	98.754080 
2068.418170  	98.704426 
2069.843682  	98.781416 
2071.269194  	98.871473 
2072.694706  	98.931673 
2074.120218  	99.095565 
2075.545731  	99.124388 
2076.971243  	98.935565 
2078.396755  	98.810355 
2079.822267  	98.765503 
2081.247779  	98.821887 
2082.673291  	98.950540 
2084.098804  	98.871883 
2085.524316  	98.790960 
2086.949828  	98.974204 
2088.375340  	99.029347 
2089.800852  	98.830915 
2091.226365  	98.797693 
2092.651877  	99.014044 
2094.077389  	99.172953 
2095.502901  	99.133866 
2096.928413  	99.092841 
2098.353925  	99.099837 
2099.779438  	98.966962 
2101.204950  	98.803809 
2102.630462  	98.870217 
2104.055974  	99.060917 
2105.481486  	99.093022 
2106.906999  	98.955254 
2108.332511  	98.873525 
2109.758023  	98.877165 
2111.183535  	98.889795 
2112.609047  	98.948494 
2114.034559  	98.924377 
2115.460072  	98.793565 
2116.885584  	98.819246 
2118.311096  	98.895740 
2119.736608  	98.841526 
2121.162120  	98.847780 
2122.587632  	98.847130 
2124.013145  	98.763567 
2125.438657  	98.853620 
2126.864169  	98.953209 
2128.289681  	98.822992 
2129.715193  	98.794222 
2131.140706  	98.961167 
2132.566218  	98.924586 
2133.991730  	98.694096 
2135.417242  	98.765667 
2136.842754  	99.159442 
2138.268266  	99.365333 
2139.693779  	99.286194 
2141.119291  	99.083103 
2142.544803  	98.803630 
2143.970315  	98.704375 
2145.395827  	98.825764 
2146.821339  	98.779303 
2148.246852  	98.741491 
2149.672364  	98.979842 
2151.097876  	99.043516 
2152.523388  	98.873536 
2153.948900  	98.974138 
2155.374413  	99.132787 
2156.799925  	98.956175 
2158.225437  	98.912774 
2159.650949  	99.160649 
2161.076461  	99.233684 
2162.501973  	99.249265 
2163.927486  	99.296013 
2165.352998  	99.260714 
2166.778510  	99.150155 
2168.204022  	98.916717 
2169.629534  	98.851146 
2171.055047  	99.055715 
2172.480559  	99.086608 
2173.906071  	99.003539 
2175.331583  	99.016827 
2176.757095  	98.817259 
2178.182607  	98.498035 
2179.608120  	98.401878 
2181.033632  	98.653606 
2182.459144  	99.118142 
2183.884656  	99.291714 
2185.310168  	99.170750 
2186.735680  	99.151358 
2188.161193  	98.985333 
2189.586705  	98.785302 
2191.012217  	98.940427 
2192.437729  	99.042567 
2193.863241  	98.998293 
2195.288754  	99.141073 
2196.714266  	99.086293 
2198.139778  	98.672250 
2199.565290  	98.516757 
2200.990802  	98.851454 
2202.416314  	99.226759 
2203.841827  	99.256283 
2205.267339  	99.085919 
2206.692851  	98.944618 
2208.118363  	98.838560 
2209.543875  	98.806143 
2210.969387  	98.873641 
2212.394900  	98.890211 
2213.820412  	98.827889 
2215.245924  	98.869143 
2216.671436  	98.999840 
2218.096948  	98.938960 
2219.522461  	98.810939 
2220.947973  	99.002704 
2222.373485  	99.197452 
2223.798997  	99.055757 
2225.224509  	98.975623 
2226.650021  	99.038748 
2228.075534  	98.992238 
2229.501046  	99.016009 
2230.926558  	99.130778 
2232.352070  	99.035706 
2233.777582  	98.845862 
2235.203095  	98.890145 
2236.628607  	99.002694 
2238.054119  	98.923819 
2239.479631  	98.927321 
2240.905143  	99.089432 
2242.330655  	99.018767 
2243.756168  	98.872146 
2245.181680  	98.953656 
2246.607192  	98.990615 
2248.032704  	98.903723 
2249.458216  	98.880237 
2250.883728  	98.881187 
2252.309241  	98.882137 
2253.734753  	98.883087 
2255.160265  	98.884037 
2256.585777  	98.884987 
2258.011289  	98.885937 
2259.436802  	98.886887 
2260.862314  	98.887837 
2262.287826  	98.888787 
2263.713338  	98.889737 
2265.138850  	98.890687 
2266.564362  	98.891637 
2267.989875  	98.892587 
2269.415387  	98.893537 
2270.840899  	98.894487 
2272.266411  	98.895438 
2273.691923  	98.896388 
2275.117435  	98.897338 
2276.542948  	98.898288 
2277.968460  	98.899238 
2279.393972  	98.900188 
2280.819484  	98.901138 
2282.244996  	98.902088 
2283.670509  	98.903038 
2285.096021  	98.903988 
2286.521533  	98.904938 
2287.947045  	98.905888 
2289.372557  	98.906838 
2290.798069  	98.907788 
2292.223582  	98.908738 
2293.649094  	98.909688 
2295.074606  	98.910638 
2296.500118  	98.911588 
2297.925630  	98.912538 
2299.351142  	98.913488 
2300.776655  	98.914438 
2302.202167  	98.915388 
2303.627679  	98.916338 
2305.053191  	98.917288 
2306.478703  	98.918238 
2307.904216  	98.919188 
2309.329728  	98.920138 
2310.755240  	98.921088 
2312.180752  	98.922038 
2313.606264  	98.922988 
2315.031776  	98.923938 
2316.457289  	98.924888 
2317.882801  	98.925838 
2319.308313  	98.926789 
2320.733825  	98.927739 
2322.159337  	98.928689 
2323.584850  	98.929639 
2325.010362  	98.930589 
2326.435874  	98.931539 
2327.861386  	98.932489 
2329.286898  	98.933439 
2330.712410  	98.934389 
2332.137923  	98.935339 
2333.563435  	98.936289 
2334.988947  	98.937239 
2336.414459  	98.938189 
2337.839971  	98.939139 
2339.265483  	98.940089 
2340.690996  	98.941039 
2342.116508  	98.941989 
2343.542020  	98.942939 
2344.967532  	98.943889 
2346.393044  	98.944839 
2347.818557  	98.945789 
2349.244069  	98.946739 
2350.669581  	98.947689 
2352.095093  	98.948639 
2353.520605  	98.949589 
2354.946117  	98.950539 
2356.371630  	98.951489 
2357.797142  	98.952439 
2359.222654  	98.953389 
2360.648166  	98.954339 
2362.073678  	98.955289 
2363.499190  	98.956239 
2364.924703  	98.957189 
2366.350215  	98.958140 
2367.775727  	98.959090 
2369.201239  	98.960040 
2370.626751  	98.960990 
2372.052264  	98.961940 
2373.477776  	98.962890 
2374.903288  	98.963840 
2376.328800  	98.964790 
2377.754312  	98.965740 
2379.179824  	98.966690 
2380.605337  	98.967640 
2382.030849  	98.968590 
2383.456361  	98.969540 
2384.881873  	98.970490 
2386.307385  	98.971440 
2387.732898  	98.972390 
2389.158410  	98.973340 
2390.583922  	98.974290 
2392.009434  	98.975240 
2393.434946  	98.976190 
2394.860458  	98.977140 
2396.285971  	98.978090 
2397.711483  	98.979040 
2399.136995  	98.979990 
2400.562507  	98.980940 
2401.988019  	99.051323 
2403.413531  	99.051516 
2404.839044  	99.012703 
2406.264556  	98.965602 
2407.690068  	98.917643 
2409.115580  	98.903504 
2410.541092  	98.925867 
2411.966605  	98.954081 
2413.392117  	98.994541 
2414.817629  	99.036533 
2416.243141  	99.033078 
2417.668653  	99.009654 
2419.094165  	98.989730 
2420.519678  	98.950251 
2421.945190  	98.928513 
2423.370702  	98.929013 
2424.796214  	98.921999 
2426.221726  	98.956144 
2427.647238  	99.005472 
2429.072751  	99.005394 
2430.498263  	99.006205 
2431.923775  	99.022152 
2433.349287  	99.022576 
2434.774799  	99.014060 
2436.200312  	98.993331 
2437.625824  	98.992374 
2439.051336  	99.016491 
2440.476848  	99.004384 
2441.902360  	98.967181 
2443.327872  	98.939899 
2444.753385  	98.932521 
2446.178897  	98.965547 
2447.604409  	98.979382 
2449.029921  	98.934243 
2450.455433  	98.929685 
2451.880945  	98.985200 
2453.306458  	98.960134 
2454.731970  	98.863880 
2456.157482  	98.897088 
2457.582994  	99.004243 
2459.008506  	98.961962 
2460.434019  	98.914161 
2461.859531  	99.002969 
2463.285043  	99.016792 
2464.710555  	98.948117 
2466.136067  	98.947111 
2467.561579  	98.945084 
2468.987092  	98.936342 
2470.412604  	98.951184 
2471.838116  	98.925889 
2473.263628  	98.909462 
2474.689140  	98.922034 
2476.114653  	98.923028 
2477.540165  	98.948724 
2478.965677  	98.970089 
2480.391189  	98.978823 
2481.816701  	99.009156 
2483.242213  	98.996438 
2484.667726  	98.961964 
2486.093238  	98.957157 
2487.518750  	98.931316 
2488.944262  	98.917303 
2490.369774  	98.937242 
2491.795286  	98.969452 
2493.220799  	99.038963 
2494.646311  	99.040425 
2496.071823  	98.946875 
2497.497335  	98.952899 
2498.922847  	99.038458 
2500.348360  	99.039096 
2501.773872  	98.987860 
2503.199384  	98.962092 
2504.624896  	98.953242 
2506.050408  	98.916870 
2507.475920  	98.867698 
2508.901433  	98.885414 
2510.326945  	98.933935 
2511.752457  	98.948577 
2513.177969  	98.946699 
2514.603481  	98.906889 
2516.028993  	98.887180 
2517.454506  	98.960705 
2518.880018  	98.983792 
2520.305530  	98.912217 
2521.731042  	98.900049 
2523.156554  	98.939665 
2524.582067  	98.950690 
2526.007579  	98.964959 
2527.433091  	98.993997 
2528.858603  	98.980839 
2530.284115  	98.913896 
2531.709627  	98.898236 
2533.135140  	98.943331 
2534.560652  	98.898286 
2535.986164  	98.827601 
2537.411676  	98.872815 
2538.837188  	98.899482 
2540.262701  	98.883575 
2541.688213  	98.960987 
2543.113725  	99.010265 
2544.539237  	98.942009 
2545.964749  	98.901514 
2547.390261  	98.924710 
2548.815774  	98.953698 
2550.241286  	98.968641 
2551.666798  	98.949380 
2553.092310  	98.925294 
2554.517822  	98.911529 
2555.943334  	98.900442 
2557.368847  	98.949523 
2558.794359  	99.022602 
2560.219871  	99.001534 
2561.645383  	98.929933 
2563.070895  	98.903803 
2564.496408  	98.899519 
2565.921920  	98.899691 
2567.347432  	98.923139 
2568.772944  	98.928772 
2570.198456  	98.900096 
2571.623968  	98.907979 
2573.049481  	98.959532 
2574.474993  	98.982961 
2575.900505  	98.970920 
2577.326017  	98.943008 
2578.751529  	98.904963 
2580.177041  	98.891853 
2581.602554  	98.903554 
2583.028066  	98.921213 
2584.453578  	98.945651 
2585.879090  	98.939957 
2587.304602  	98.916907 
2588.730115  	98.917824 
2590.155627  	98.904544 
2591.581139  	98.911005 
2593.006651  	98.960058 
2594.432163  	98.924979 
2595.857675  	98.855182 
2597.283188  	98.902327 
2598.708700  	98.964947 
2600.134212  	98.962461 
2601.559724  	98.961871 
2602.985236  	98.940811 
2604.410749  	98.904136 
2605.836261  	98.905327 
2607.261773  	98.906515 
2608.687285  	98.903570 
2610.112797  	98.919057 
2611.538309  	98.931839 
2612.963822  	98.944996 
2614.389334  	98.932536 
2615.814846  	98.903184 
2617.240358  	98.933435 
2618.665870  	98.936374 
2620.091382  	98.827667 
2621.516895  	98.771233 
2622.942407  	98.834758 
2624.367919  	98.877195 
2625.793431  	98.859727 
2627.218943  	98.843434 
2628.644456  	98.860136 
2630.069968  	98.899552 
2631.495480  	98.904551 
2632.920992  	98.875879 
2634.346504  	98.876437 
2635.772016  	98.906619 
2637.197529  	98.931842 
2638.623041  	98.911964 
2640.048553  	98.837175 
2641.474065  	98.791799 
2642.899577  	98.803924 
2644.325089  	98.817787 
2645.750602  	98.851702 
2647.176114  	98.899472 
2648.601626  	98.911917 
2650.027138  	98.927787 
2651.452650  	98.930933 
2652.878163  	98.867672 
2654.303675  	98.826955 
2655.729187  	98.855165 
2657.154699  	98.878576 
2658.580211  	98.893357 
2660.005723  	98.912650 
2661.431236  	98.900809 
2662.856748  	98.865824 
2664.282260  	98.843519 
2665.707772  	98.843878 
2667.133284  	98.845837 
2668.558796  	98.844810 
2669.984309  	98.878331 
2671.409821  	98.901906 
2672.835333  	98.841540 
2674.260845  	98.787690 
2675.686357  	98.816887 
2677.111870  	98.842298 
2678.537382  	98.841956 
2679.962894  	98.865013 
2681.388406  	98.868798 
2682.813918  	98.839480 
2684.239430  	98.843049 
2685.664943  	98.870137 
2687.090455  	98.866695 
2688.515967  	98.843536 
2689.941479  	98.818880 
2691.366991  	98.797549 
2692.792504  	98.813128 
2694.218016  	98.860533 
2695.643528  	98.891734 
2697.069040  	98.896710 
2698.494552  	98.866410 
2699.920064  	98.812396 
2701.345577  	98.808166 
2702.771089  	98.841908 
2704.196601  	98.842295 
2705.622113  	98.844128 
2707.047625  	98.867040 
2708.473137  	98.858634 
2709.898650  	98.834432 
2711.324162  	98.819708 
2712.749674  	98.807029 
2714.175186  	98.822072 
2715.600698  	98.846720 
2717.026211  	98.835085 
2718.451723  	98.819349 
2719.877235  	98.822762 
2721.302747  	98.813716 
2722.728259  	98.797224 
2724.153771  	98.805538 
2725.579284  	98.830771 
2727.004796  	98.833374 
2728.430308  	98.812258 
2729.855820  	98.816819 
2731.281332  	98.843635 
2732.706844  	98.832759 
2734.132357  	98.788487 
2735.557869  	98.759747 
2736.983381  	98.757431 
2738.408893  	98.771507 
2739.834405  	98.781341 
2741.259918  	98.775169 
2742.685430  	98.781428 
2744.110942  	98.799564 
2745.536454  	98.791736 
2746.961966  	98.775917 
2748.387478  	98.782427 
2749.812991  	98.787177 
2751.238503  	98.782462 
2752.664015  	98.794343 
2754.089527  	98.822977 
2755.515039  	98.844267 
2756.940552  	98.841261 
2758.366064  	98.818096 
2759.791576  	98.794436 
2761.217088  	98.784513 
2762.642600  	98.783382 
2764.068112  	98.778992 
2765.493625  	98.784121 
2766.919137  	98.805222 
2768.344649  	98.804779 
2769.770161  	98.776981 
2771.195673  	98.751339 
2772.621185  	98.726707 
2774.046698  	98.730577 
2775.472210  	98.780319 
2776.897722  	98.795562 
2778.323234  	98.756825 
2779.748746  	98.748236 
2781.174259  	98.763572 
2782.599771  	98.734425 
2784.025283  	98.694002 
2785.450795  	98.721333 
2786.876307  	98.783203 
2788.301819  	98.790030 
2789.727332  	98.773283 
2791.152844  	98.787272 
2792.578356  	98.770209 
2794.003868  	98.715428 
2795.429380  	98.706266 
2796.854892  	98.736173 
2798.280405  	98.742652 
2799.705917  	98.723378 
2801.131429  	98.724818 
2802.556941  	98.748868 
2803.982453  	98.729251 
2805.407966  	98.681825 
2806.833478  	98.683128 
2808.258990  	98.703434 
2809.684502  	98.707277 
2811.110014  	98.716685 
2812.535526  	98.726571 
2813.961039  	98.744642 
2815.386551  	98.758523 
2816.812063  	98.730990 
2818.237575  	98.700085 
2819.663087  	98.681185 
2821.088600  	98.656672 
2822.514112  	98.665243 
2823.939624  	98.681965 
2825.365136  	98.669192 
2826.790648  	98.691413 
2828.216160  	98.739830 
2829.641673  	98.731039 
2831.067185  	98.684660 
2832.492697  	98.675530 
2833.918209  	98.712516 
2835.343721  	98.724316 
2836.769233  	98.678253 
2838.194746  	98.647390 
2839.620258  	98.662148 
2841.045770  	98.676463 
2842.471282  	98.675874 
2843.896794  	98.666007 
2845.322307  	98.672426 
2846.747819  	98.712881 
2848.173331  	98.733061 
2849.598843  	98.731551 
2851.024355  	98.772476 
2852.449867  	98.803218 
2853.875380  	98.759902 
2855.300892  	98.728026 
2856.726404  	98.758510 
2858.151916  	98.762282 
2859.577428  	98.699473 
2861.002940  	98.636568 
2862.428453  	98.612687 
2863.853965  	98.615004 
2865.279477  	98.617452 
2866.704989  	98.591119 
2868.130501  	98.554042 
2869.556014  	98.549116 
2870.981526  	98.548766 
2872.407038  	98.514102 
2873.832550  	98.490873 
2875.258062  	98.505436 
2876.683574  	98.502443 
2878.109087  	98.478398 
2879.534599  	98.478936 
2880.960111  	98.481537 
2882.385623  	98.471450 
2883.811135  	98.480859 
2885.236647  	98.496471 
2886.662160  	98.507883 
2888.087672  	98.515178 
2889.513184  	98.480870 
2890.938696  	98.442528 
2892.364208  	98.458593 
2893.789721  	98.477838 
2895.215233  	98.477640 
2896.640745  	98.477363 
2898.066257  	98.452206 
2899.491769  	98.441613 
2900.917281  	98.490212 
2902.342794  	98.537612 
2903.768306  	98.549349 
2905.193818  	98.539672 
2906.619330  	98.510757 
2908.044842  	98.499221 
2909.470355  	98.528504 
2910.895867  	98.547937 
2912.321379  	98.531732 
2913.746891  	98.536420 
2915.172403  	98.571121 
2916.597915  	98.567171 
2918.023428  	98.551631 
2919.448940  	98.587075 
2920.874452  	98.623969 
2922.299964  	98.661130 
2923.725476  	98.724193 
2925.150988  	98.713402 
2926.576501  	98.615749 
2928.002013  	98.544067 
2929.427525  	98.523367 
2930.853037  	98.529369 
2932.278549  	98.541693 
2933.704062  	98.536208 
2935.129574  	98.533507 
2936.555086  	98.544973 
2937.980598  	98.566122 
2939.406110  	98.596372 
2940.831622  	98.590180 
2942.257135  	98.563257 
2943.682647  	98.595864 
2945.108159  	98.644513 
2946.533671  	98.637658 
2947.959183  	98.629376 
2949.384695  	98.651290 
2950.810208  	98.660640 
2952.235720  	98.673502 
2953.661232  	98.716129 
2955.086744  	98.734771 
2956.512256  	98.721841 
2957.937769  	98.742860 
2959.363281  	98.777764 
2960.788793  	98.770877 
2962.214305  	98.749543 
2963.639817  	98.742005 
2965.065329  	98.737839 
2966.490842  	98.727513 
2967.916354  	98.713130 
2969.341866  	98.719409 
2970.767378  	98.747233 
2972.192890  	98.759379 
2973.618403  	98.742581 
2975.043915  	98.715470 
2976.469427  	98.713839 
2977.894939  	98.742691 
2979.320451  	98.749193 
2980.745963  	98.730884 
2982.171476  	98.731813 
2983.596988  	98.725363 
2985.022500  	98.697100 
2986.448012  	98.709677 
2987.873524  	98.761842 
2989.299036  	98.777143 
2990.724549  	98.759087 
2992.150061  	98.770441 
2993.575573  	98.796859 
2995.001085  	98.794757 
2996.426597  	98.774866 
2997.852110  	98.746306 
2999.277622  	98.712319 
3000.703134  	98.687344 
3002.128646  	98.671707 
3003.554158  	98.685397 
3004.979670  	98.729039 
3006.405183  	98.742268 
3007.830695  	98.717001 
3009.256207  	98.701812 
3010.681719  	98.708336 
3012.107231  	98.713351 
3013.532743  	98.687891 
3014.958256  	98.654193 
3016.383768  	98.668853 
3017.809280  	98.709138 
3019.234792  	98.712328 
3020.660304  	98.676360 
3022.085817  	98.638448 
3023.511329  	98.618971 
3024.936841  	98.609124 
3026.362353  	98.616027 
3027.787865  	98.639221 
3029.213377  	98.648375 
3030.638890  	98.662528 
3032.064402  	98.678799 
3033.489914  	98.646738 
3034.915426  	98.602048 
3036.340938  	98.559279 
3037.766450  	98.520160 
3039.191963  	98.570036 
3040.617475  	98.626108 
3042.042987  	98.567136 
3043.468499  	98.533316 
3044.894011  	98.579100 
3046.319524  	98.604184 
3047.745036  	98.601466 
3049.170548  	98.520697 
3050.596060  	98.395413 
3052.021572  	98.405626 
3053.447084  	98.494910 
3054.872597  	98.509263 
3056.298109  	98.480609 
3057.723621  	98.459159 
3059.149133  	98.464440 
3060.574645  	98.473655 
3062.000158  	98.424628 
3063.425670  	98.374518 
3064.851182  	98.383211 
3066.276694  	98.414478 
3067.702206  	98.453946 
3069.127718  	98.444762 
3070.553231  	98.355293 
3071.978743  	98.301511 
3073.404255  	98.329651 
3074.829767  	98.361647 
3076.255279  	98.366225 
3077.680791  	98.340010 
3079.106304  	98.293042 
3080.531816  	98.272139 
3081.957328  	98.270266 
3083.382840  	98.252677 
3084.808352  	98.260475 
3086.233865  	98.305826 
3087.659377  	98.305909 
3089.084889  	98.265851 
3090.510401  	98.255804 
3091.935913  	98.239930 
3093.361425  	98.219937 
3094.786938  	98.242048 
3096.212450  	98.219525 
3097.637962  	98.145892 
3099.063474  	98.147065 
3100.488986  	98.195615 
3101.914498  	98.211165 
3103.340011  	98.203612 
3104.765523  	98.166155 
3106.191035  	98.111926 
3107.616547  	98.077300 
3109.042059  	98.078632 
3110.467572  	98.131711 
3111.893084  	98.143588 
3113.318596  	98.042694 
3114.744108  	97.989618 
3116.169620  	98.068616 
3117.595132  	98.133654 
3119.020645  	98.134656 
3120.446157  	98.117632 
3121.871669  	98.061168 
3123.297181  	98.000238 
3124.722693  	97.988538 
3126.148206  	97.970298 
3127.573718  	97.937055 
3128.999230  	97.948379 
3130.424742  	97.963256 
3131.850254  	97.937467 
3133.275766  	97.905965 
3134.701279  	97.864956 
3136.126791  	97.822276 
3137.552303  	97.830963 
3138.977815  	97.864226 
3140.403327  	97.883829 
3141.828839  	97.915169 
3143.254352  	97.933436 
3144.679864  	97.891338 
3146.105376  	97.852044 
3147.530888  	97.873759 
3148.956400  	97.873541 
3150.381913  	97.843675 
3151.807425  	97.882841 
3153.232937  	97.879040 
3154.658449  	97.782696 
3156.083961  	97.823865 
3157.509473  	97.907712 
3158.934986  	97.803547 
3160.360498  	97.735516 
3161.786010  	97.796350 
3163.211522  	97.791143 
3164.637034  	97.754236 
3166.062546  	97.722328 
3167.488059  	97.714719 
3168.913571  	97.776754 
3170.339083  	97.697430 
3171.764595  	97.545189 
3173.190107  	97.627741 
3174.615620  	97.727939 
3176.041132  	97.691181 
3177.466644  	97.711604 
3178.892156  	97.703808 
3180.317668  	97.651379 
3181.743180  	97.662492 
3183.168693  	97.601581 
3184.594205  	97.545481 
3186.019717  	97.606898 
3187.445229  	97.599010 
3188.870741  	97.562865 
3190.296254  	97.590410 
3191.721766  	97.566232 
3193.147278  	97.561517 
3194.572790  	97.617096 
3195.998302  	97.615315 
3197.423814  	97.587310 
3198.849327  	97.561581 
3200.274839  	97.557955 
3201.700351  	97.612698 
3203.125863  	97.579955 
3204.551375  	97.468458 
3205.976887  	97.470111 
3207.402400  	97.494734 
3208.827912  	97.445594 
3210.253424  	97.430583 
3211.678936  	97.419049 
3213.104448  	97.376484 
3214.529961  	97.371261 
3215.955473  	97.344102 
3217.380985  	97.306954 
3218.806497  	97.369898 
3220.232009  	97.430602 
3221.657521  	97.419852 
3223.083034  	97.455244 
3224.508546  	97.492740 
3225.934058  	97.453613 
3227.359570  	97.436484 
3228.785082  	97.442624 
3230.210594  	97.422880 
3231.636107  	97.451715 
3233.061619  	97.494041 
3234.487131  	97.461129 
3235.912643  	97.430362 
3237.338155  	97.437160 
3238.763668  	97.402111 
3240.189180  	97.339637 
3241.614692  	97.325733 
3243.040204  	97.343910 
3244.465716  	97.334158 
3245.891228  	97.309959 
3247.316741  	97.321113 
3248.742253  	97.370807 
3250.167765  	97.419170 
3251.593277  	97.393716 
3253.018789  	97.283379 
3254.444301  	97.189188 
3255.869814  	97.168938 
3257.295326  	97.223844 
3258.720838  	97.349320 
3260.146350  	97.441840 
3261.571862  	97.423300 
3262.997375  	97.347061 
3264.422887  	97.280478 
3265.848399  	97.310295 
3267.273911  	97.410167 
3268.699423  	97.392675 
3270.124935  	97.282491 
3271.550448  	97.250085 
3272.975960  	97.283788 
3274.401472  	97.338934 
3275.826984  	97.382192 
3277.252496  	97.344550 
3278.678009  	97.298412 
3280.103521  	97.307179 
3281.529033  	97.289250 
3282.954545  	97.260085 
3284.380057  	97.327479 
3285.805569  	97.454515 
3287.231082  	97.482036 
3288.656594  	97.384297 
3290.082106  	97.323102 
3291.507618  	97.345795 
3292.933130  	97.366417 
3294.358642  	97.396830 
3295.784155  	97.422747 
3297.209667  	97.401466 
3298.635179  	97.424362 
3300.060691  	97.478732 
3301.486203  	97.430483 
3302.911716  	97.353795 
3304.337228  	97.374907 
3305.762740  	97.407500 
3307.188252  	97.373810 
3308.613764  	97.362952 
3310.039276  	97.414259 
3311.464789  	97.432859 
3312.890301  	97.417963 
3314.315813  	97.467688 
3315.741325  	97.546115 
3317.166837  	97.550692 
3318.592349  	97.500451 
3320.017862  	97.468532 
3321.443374  	97.469394 
3322.868886  	97.464206 
3324.294398  	97.424431 
3325.719910  	97.394637 
3327.145423  	97.426135 
3328.570935  	97.462769 
3329.996447  	97.439377 
3331.421959  	97.443396 
3332.847471  	97.537957 
3334.272983  	97.571499 
3335.698496  	97.484328 
3337.124008  	97.440852 
3338.549520  	97.457222 
3339.975032  	97.444172 
3341.400544  	97.460560 
3342.826057  	97.495432 
3344.251569  	97.457590 
3345.677081  	97.406271 
3347.102593  	97.397800 
3348.528105  	97.400224 
3349.953617  	97.440127 
3351.379130  	97.517710 
3352.804642  	97.555950 
3354.230154  	97.554942 
3355.655666  	97.564616 
3357.081178  	97.573111 
3358.506690  	97.600366 
3359.932203  	97.655192 
3361.357715  	97.614721 
3362.783227  	97.515707 
3364.208739  	97.549596 
3365.634251  	97.613285 
3367.059764  	97.581670 
3368.485276  	97.593910 
3369.910788  	97.609765 
3371.336300  	97.561163 
3372.761812  	97.594859 
3374.187324  	97.647364 
3375.612837  	97.609738 
3377.038349  	97.576129 
3378.463861  	97.566460 
3379.889373  	97.640840 
3381.314885  	97.788927 
3382.740397  	97.782680 
3384.165910  	97.713437 
3385.591422  	97.754536 
3387.016934  	97.707731 
3388.442446  	97.594869 
3389.867958  	97.647626 
3391.293471  	97.801313 
3392.718983  	97.877742 
3394.144495  	97.785029 
3395.570007  	97.654226 
3396.995519  	97.706318 
3398.421031  	97.833927 
3399.846544  	97.878660 
3401.272056  	97.914893 
3402.697568  	97.954316 
3404.123080  	98.011270 
3405.548592  	98.076805 
3406.974105  	98.030303 
3408.399617  	97.976703 
3409.825129  	98.015644 
3411.250641  	97.969755 
3412.676153  	97.887220 
3414.101665  	97.971806 
3415.527178  	98.043615 
3416.952690  	97.915813 
3418.378202  	97.866397 
3419.803714  	98.050788 
3421.229226  	98.111568 
3422.654738  	97.946489 
3424.080251  	97.889245 
3425.505763  	97.974696 
3426.931275  	98.025057 
3428.356787  	98.000047 
3429.782299  	97.966312 
3431.207812  	98.049788 
3432.633324  	98.127965 
3434.058836  	98.031950 
3435.484348  	98.027571 
3436.909860  	98.188273 
3438.335372  	98.233537 
3439.760885  	98.199118 
3441.186397  	98.156959 
3442.611909  	98.085502 
3444.037421  	98.158944 
3445.462933  	98.280187 
3446.888445  	98.205509 
3448.313958  	98.094462 
3449.739470  	98.118418 
3451.164982  	98.207807 
3452.590494  	98.311188 
3454.016006  	98.342089 
3455.441519  	98.237383 
3456.867031  	98.126624 
3458.292543  	98.172178 
3459.718055  	98.296528 
3461.143567  	98.354606 
3462.569079  	98.416903 
3463.994592  	98.495421 
3465.420104  	98.447163 
3466.845616  	98.341281 
3468.271128  	98.364020 
3469.696640  	98.481295 
3471.122152  	98.501729 
3472.547665  	98.370109 
3473.973177  	98.279418 
3475.398689  	98.366827 
3476.824201  	98.539816 
3478.249713  	98.642492 
3479.675226  	98.569579 
3481.100738  	98.460971 
3482.526250  	98.528708 
3483.951762  	98.631165 
3485.377274  	98.655294 
3486.802786  	98.666572 
3488.228299  	98.633071 
3489.653811  	98.632110 
3491.079323  	98.694529 
3492.504835  	98.656450 
3493.930347  	98.591439 
3495.355860  	98.616955 
3496.781372  	98.612032 
3498.206884  	98.584932 
3499.632396  	98.639525 
3501.057908  	98.700278 
3502.483420  	98.671615 
3503.908933  	98.645319 
3505.334445  	98.709887 
3506.759957  	98.764401 
3508.185469  	98.815873 
3509.610981  	98.910354 
3511.036493  	98.915573 
3512.462006  	98.879838 
3513.887518  	98.879382 
3515.313030  	98.829539 
3516.738542  	98.866348 
3518.164054  	98.995867 
3519.589567  	98.979381 
3521.015079  	98.925634 
3522.440591  	98.904878 
3523.866103  	98.821393 
3525.291615  	98.849419 
3526.717127  	98.980034 
3528.142640  	99.054432 
3529.568152  	99.070206 
3530.993664  	98.965158 
3532.419176  	98.840074 
3533.844688  	98.871654 
3535.270200  	98.950482 
3536.695713  	98.997601 
3538.121225  	99.021029 
3539.546737  	99.052270 
3540.972249  	99.058189 
3542.397761  	99.052758 
3543.823274  	99.057620 
3545.248786  	99.072571 
3546.674298  	99.092715 
3548.099810  	99.108845 
3549.525322  	99.121562 
3550.950834  	99.138088 
3552.376347  	99.160863 
3553.801859  	99.176283 
3555.227371  	99.169612 
3556.652883  	99.139882 
3558.078395  	99.185454 
3559.503908  	99.193755 
3560.929420  	99.208991 
3562.354932  	99.226196 
3563.780444  	99.238178 
3565.205956  	99.246807 
3566.631468  	99.257462 
3568.056981  	99.272450 
3569.482493  	99.286847 
3570.908005  	99.284501 
3572.333517  	99.274699 
3573.759029  	99.334128 
3575.184541  	99.342946 
3576.610054  	99.336220 
3578.035566  	99.325953 
3579.461078  	99.333174 
3580.886590  	99.359628 
3582.312102  	99.392266 
3583.737615  	99.422474 
3585.163127  	99.440005 
3586.588639  	99.448906 
3588.014151  	99.454612 
3589.439663  	99.458644 
3590.865175  	99.463757 
3592.290688  	99.476702 
3593.716200  	99.491238 
3595.141712  	99.506300 
3596.567224  	99.517740 
3597.992736  	99.523970 
3599.418248  	99.528146 
3600.843761  	99.536470 
3602.269273  	99.550568 
3603.694785  	99.560958 
3605.120297  	99.559266 
3606.545809  	99.547567 
3607.971322  	99.536934 
3609.396834  	99.529260 
3610.822346  	99.524332 
3612.247858  	99.528503 
3613.673370  	99.547984 
3615.098882  	99.573130 
3616.524395  	99.590662 
3617.949907  	99.593115 
3619.375419  	99.585680 
3620.800931  	99.579119 
3622.226443  	99.579035 
3623.651955  	99.594724 
3625.077468  	99.609774 
3626.502980  	99.609951 
3627.928492  	99.617652 
3629.354004  	99.630996 
3630.779516  	99.643831 
3632.205029  	99.655962 
3633.630541  	99.677275 
3635.056053  	99.698580 
3636.481565  	99.648144 
3637.907077  	99.682179 
3639.332589  	99.677492 
3640.758102  	99.669931 
3642.183614  	99.653711 
3643.609126  	99.677704 
3645.034638  	99.702198 
3646.460150  	99.715501 
3647.885663  	99.722992 
3649.311175  	99.736452 
3650.736687  	99.750219 
3652.162199  	99.757059 
3653.587711  	99.763279 
3655.013223  	99.773142 
3656.438736  	99.779103 
3657.864248  	99.784207 
3659.289760  	99.794053 
3660.715272  	99.809998 
3662.140784  	99.831856 
3663.566296  	99.824247 
3664.991809  	99.852503 
3666.417321  	99.850704 
3667.842833  	99.835452 
3669.268345  	99.826827 
3670.693857  	99.831460 
3672.119370  	99.841852 
3673.544882  	99.858329 
3674.970394  	99.889373 
3676.395906  	99.925089 
3677.821418  	99.928145 
3679.246930  	99.905563 
3680.672443  	99.890085 
3682.097955  	99.937648 
3683.523467  	99.977842 
3684.948979  	99.987172 
3686.374491  	99.935515 
3687.800003  	99.926893 
3689.225516  	99.933355 
3690.651028  	99.942599 
3692.076540  	99.942492 
3693.502052  	99.901089 
3694.927564  	99.792967 
3696.353077  	99.967889 
3697.778589  	100.083166 
3699.204101  	99.978685 
3700.629613  	99.899971 
3702.055125  	99.869625 
3703.480637  	99.862658 
3704.906150  	99.713218 
3706.331662  	99.909231 
3707.757174  	99.954768 
3709.182686  	99.961732 
3710.608198  	99.951091 
3712.033711  	99.937955 
3713.459223  	99.919677 
3714.884735  	99.885297 
3716.310247  	99.899148 
3717.735759  	99.928219 
3719.161271  	99.935178 
3720.586784  	99.936828 
3722.012296  	99.933632 
3723.437808  	99.925620 
3724.863320  	99.906320 
3726.288832  	99.885231 
3727.714344  	99.871515 
3729.139857  	99.872578 
3730.565369  	99.880724 
3731.990881  	99.884245 
3733.416393  	99.878213 
3734.841905  	99.848239 
3736.267418  	99.819016 
3737.692930  	99.813359 
3739.118442  	99.828644 
3740.543954  	99.842552 
3741.969466  	99.836154 
3743.394978  	99.817468 
3744.820491  	99.798865 
3746.246003  	99.784223 
3747.671515  	99.793875 
3749.097027  	99.835432 
3750.522539  	99.868319 
3751.948051  	99.887595 
3753.373564  	99.900340 
3754.799076  	99.902388 
3756.224588  	99.894562 
3757.650100  	99.882589 
3759.075612  	99.893462 
3760.501125  	99.898871 
3761.926637  	99.880390 
3763.352149  	99.912048 
3764.777661  	99.911989 
3766.203173  	99.943620 
3767.628685  	99.955143 
3769.054198  	99.954697 
3770.479710  	99.947183 
3771.905222  	99.940313 
3773.330734  	99.729161 
3774.756246  	99.905008 
3776.181759  	99.976172 
3777.607271  	99.932714 
3779.032783  	99.917400 
3780.458295  	99.921366 
3781.883807  	99.931126 
3783.309319  	99.934965 
3784.734832  	99.947158 
3786.160344  	99.955908 
3787.585856  	99.946847 
3789.011368  	99.917294 
3790.436880  	99.899076 
3791.862392  	99.915705 
3793.287905  	99.900925 
3794.713417  	99.889080 
3796.138929  	99.879471 
3797.564441  	99.865784 
3798.989953  	99.856106 
3800.415466  	99.863606 
3801.840978  	99.879975 
3803.266490  	99.890048 
3804.692002  	99.895791 
3806.117514  	99.897221 
3807.543026  	99.889909 
3808.968539  	99.879766 
3810.394051  	99.760235 
3811.819563  	99.915477 
3813.245075  	99.865775 
3814.670587  	99.839572 
3816.096099  	99.851968 
3817.521612  	99.863217 
3818.947124  	99.866664 
3820.372636  	99.876127 
3821.798148  	99.891790 
3823.223660  	99.900273 
3824.649173  	99.894033 
3826.074685  	99.906583 
3827.500197  	99.893612 
3828.925709  	99.868191 
3830.351221  	99.845624 
3831.776733  	99.841362 
3833.202246  	99.838980 
3834.627758  	99.841689 
3836.053270  	99.865123 
3837.478782  	99.905612 
3838.904294  	99.938799 
3840.329806  	99.954075 
3841.755319  	99.960117 
3843.180831  	99.930634 
3844.606343  	99.879852 
3846.031855  	99.865900 
3847.457367  	100.011091 
3848.882880  	99.953239 
3850.308392  	99.904186 
3851.733904  	99.895036 
3853.159416  	99.910634 
3854.584928  	99.912326 
3856.010440  	99.887598 
3857.435953  	99.859719 
3858.861465  	99.890918 
3860.286977  	99.951688 
3861.712489  	99.915233 
3863.138001  	99.870287 
3864.563514  	99.835551 
3865.989026  	99.829500 
3867.414538  	99.862319 
3868.840050  	99.917434 
3870.265562  	99.963965 
3871.691074  	99.968497 
3873.116587  	99.960309 
3874.542099  	99.959473 
3875.967611  	99.947411 
3877.393123  	99.939606 
3878.818635  	99.912357 
3880.244147  	99.904754 
3881.669660  	99.896825 
3883.095172  	99.891983 
3884.520684  	99.906793 
3885.946196  	99.940183 
3887.371708  	99.958467 
3888.797221  	99.949156 
3890.222733  	99.959906 
3891.648245  	99.944657 
3893.073757  	99.911389 
3894.499269  	99.880488 
3895.924781  	99.887571 
3897.350294  	99.886479 
3898.775806  	99.888555 
3900.201318  	99.899604 
3901.626830  	99.919024 
3903.052342  	99.938885 
3904.477854  	99.956180 
3905.903367  	99.971530 
3907.328879  	99.975149 
3908.754391  	99.974421 
3910.179903  	100.048047 
3911.605415  	99.981198 
3913.030928  	100.104147 
3914.456440  	99.950334 
3915.881952  	99.949417 
3917.307464  	99.967683 
3918.732976  	99.985175 
3920.158488  	99.993592 
3921.584001  	99.990975 
3923.009513  	99.984669 
3924.435025  	99.976908 
3925.860537  	99.970984 
3927.286049  	99.965946 
3928.711562  	99.957456 
3930.137074  	99.953946 
3931.562586  	99.959213 
3932.988098  	99.967031 
3934.413610  	99.973866 
3935.839122  	99.914553 
3937.264635  	99.982494 
3938.690147  	99.984569 
3940.115659  	99.977222 
3941.541171  	99.969496 
3942.966683  	99.963437 
3944.392195  	99.960336 
3945.817708  	99.960741 
3947.243220  	99.967506 
3948.668732  	99.976252 
3950.094244  	99.980510 
3951.519756  	99.980950 
3952.945269  	99.977917 
3954.370781  	99.963529 
3955.796293  	99.971673 
3957.221805  	99.969970 
3958.647317  	100.008328 
3960.072829  	100.063956 
3961.498342  	100.084659 
3962.923854  	100.043019 
3964.349366  	99.956319 
3965.774878  	99.917485 
3967.200390  	99.922537 
3968.625902  	99.925720 
3970.051415  	99.973500 
3971.476927  	100.048009 
3972.902439  	100.064100 
3974.327951  	100.017687 
3975.753463  	99.972739 
3977.178976  	99.977148 
3978.604488  	99.995760 
3980.030000  	99.993673 
3981.455512  	99.990676 
3982.881024  	99.990117 
3984.306536  	100.009473 
3985.732049  	100.053487 
3987.157561  	100.072228 
3988.583073  	100.076630 
3990.008585  	100.089377 
3991.434097  	100.074341 
3992.859610  	100.041146 
3994.285122  	100.027949 
3995.710634  	100.042054 
3997.136146  	100.059696 
3998.561658  	100.054599 
3999.987170  	100.039481 